<FMT> 210                       ~ data format
<UNI> picoTesla                 ~ data units
<OPR> William Christo           ~ operator's name
<XYP> 117 0 101 0               ~ X-Y probe #, SOA, tool #, tool id
<CUR> 25.0                      ~ peak current in loop (2 X meter reading)
<TXS> 400.0 0.0 0               ~ loop size (x y units) (units: 0 = m, 1 = ft
~ Transmitter Loop Co-ordinates:
<L00> 407362.0 5184407.5 304.0 0 ~ loop coord.   | 4 numbers - (x,y,z,units)
<L01> 407333.8 5184433.0 308.7 0 ~ loop coord.   |  values for units:
<L02> 407303.4 5184463.5 307.4 0 ~ loop coord.   |   0 = metres;  1 = feet
<L03> 407306.6 5184499.0 309.5 0 
<L04> 407286.9 5184532.5 313.3 0 
<L05> 407265.3 5184568.0 309.0 0 
<L06> 407239.5 5184605.5 313.6 0 
<L07> 407220.2 5184643.5 315.6 0 
<L08> 407202.8 5184671.0 312.3 0 
<L09> 407172.8 5184648.5 308.7 0 
<L10> 407142.6 5184632.5 313.0 0 
<L11> 407111.3 5184609.0 311.8 0 
<L12> 407081.4 5184594.5 308.9 0 
<L13> 407043.8 5184564.5 306.6 0 
<L14> 407023.1 5184538.0 307.5 0 
<L15> 406993.8 5184526.5 312.5 0 
<L16> 406962.7 5184510.5 312.4 0 
<L17> 406935.3 5184484.5 316.9 0 
<L18> 406912.6 5184463.5 310.3 0 
<L19> 406894.4 5184435.5 308.1 0 
<L20> 406887.1 5184413.0 306.4 0 
<L21> 406915.4 5184381.5 311.0 0 
<L22> 406934.1 5184349.0 308.9 0 
<L23> 406954.7 5184314.0 313.8 0 
<L24> 406968.8 5184288.5 319.2 0 
<L25> 406987.8 5184263.5 317.7 0 
<L26> 407009.9 5184234.0 308.6 0 
<L27> 407033.4 5184207.5 317.0 0 
<L28> 407051.8 5184186.0 316.0 0 
<L29> 407073.3 5184149.5 309.3 0 
<L30> 407083.5 5184121.0 314.6 0 
<L31> 407122.4 5184135.0 313.9 0 
<L32> 407160.0 5184143.0 312.9 0 
<L33> 407184.5 5184166.0 313.3 0 
<L34> 407212.0 5184188.5 308.4 0 
<L35> 407245.7 5184212.0 311.1 0 
<L36> 407281.2 5184232.5 309.5 0 
<L37> 407313.7 5184252.5 307.3 0 
<L38> 407349.6 5184279.5 309.1 0 
<L39> 407374.5 5184311.0 309.6 0 
<L40> 407399.8 5184333.5 305.8 0 
<L41> 407403.4 5184347.0 308.2 0 
<L42> 407384.7 5184374.0 310.5 0 
~ Hole/Profile Co-ordinates:
<P00> 407158.5 5184370.0 312.2 0 ~ 0=Collar/Start| 5 numbers: (x,y,z,units,stn)
<P01> 113.9 79.4 10.0 2 10.0    ~|1->99 =(x,y,z)| values for 'units':
<P02> 113.9 79.4 10.0 2 20.0    ~| or  segment's| 0 = metres; 1 = feet
<P03> 113.9 79.4 10.0 2 30.0    ~|(grid azimuth,| 2=az(deg) dip(deg) length(m)
<P04> 113.9 79.4 10.0 2 40.0    ~| +ve down dip,| 3=az(deg) dip(deg) length(ft)
<P05> 113.9 79.4 10.0 2 50.0    ~|segm't length)| 'stn': surface PEM (W&S -ve)
<P06> 113.6 79.4 10.0 2 60.0    
<P07> 113.4 79.4 10.0 2 70.0    
<P08> 114.6 79.4 10.0 2 80.0    
<P09> 114.9 79.4 10.0 2 90.0    
<P10> 115.6 79.5 10.0 2 100.0   
<P11> 116.3 79.5 10.0 2 110.0   
<P12> 115.0 79.4 10.0 2 120.0   
<P13> 115.8 79.4 10.0 2 130.0   
<P14> 117.6 79.5 10.0 2 140.0   
<P15> 117.7 79.6 10.0 2 150.0   
<P16> 117.3 79.5 10.0 2 160.0   
<P17> 117.2 79.4 10.0 2 170.0   
<P18> 116.9 79.4 10.0 2 180.0   
<P19> 116.5 79.4 10.0 2 190.0   
<P20> 117.1 79.5 10.0 2 200.0   
<P21> 118.2 79.5 10.0 2 210.0   
<P22> 118.4 79.5 10.0 2 220.0   
<P23> 118.5 79.4 10.0 2 230.0   
<P24> 119.3 79.4 10.0 2 240.0   
<P25> 119.9 79.5 10.0 2 250.0   
<P26> 119.9 79.5 10.0 2 260.0   
<P27> 119.3 79.8 10.0 2 270.0   
<P28> 120.8 80.0 10.0 2 280.0   
<P29> 120.6 80.2 10.0 2 290.0   
<P30> 117.7 80.5 10.0 2 300.0   
<P31> 115.9 80.9 10.0 2 310.0   
<P32> 114.1 81.2 10.0 2 320.0   
<P33> 112.6 81.5 10.0 2 330.0   
<P34> 110.4 81.7 10.0 2 340.0   
<P35> 107.3 81.7 10.0 2 350.0   
<P36> 105.3 81.7 10.0 2 360.0   
<P37> 104.5 81.8 10.0 2 370.0   
<P38> 103.8 81.9 10.0 2 380.0   
<P39> 103.4 82.0 10.0 2 390.0   
<P40> 103.4 82.1 10.0 2 400.0   
<P41> 104.0 82.1 10.0 2 410.0   
<P42> 104.3 82.0 10.0 2 420.0   
<P43> 103.8 82.0 10.0 2 430.0   
<P44> 102.9 82.0 10.0 2 440.0   
<P45> 102.2 82.1 10.0 2 450.0   
<P46> 101.3 82.2 10.0 2 460.0   
<P47> 100.1 82.3 10.0 2 470.0   
<P48> 98.7 82.4 10.0 2 480.0    
<P49> 97.5 82.4 10.0 2 490.0    
<P50> 96.9 82.5 10.0 2 500.0    
<P51> 96.9 82.5 10.0 2 510.0    
<P52> 96.6 82.6 10.0 2 520.0    
<P53> 96.0 82.7 10.0 2 530.0    
<P54> 95.5 82.7 10.0 2 540.0    
<P55> 95.4 82.7 10.0 2 550.0    
<P56> 95.5 82.7 10.0 2 560.0    
<P57> 95.1 82.8 10.0 2 570.0    
<P58> 94.1 82.8 10.0 2 580.0    
<P59> 92.9 82.9 10.0 2 590.0    
<P60> 91.6 83.1 10.0 2 600.0    
<P61> 90.3 83.2 10.0 2 610.0    
<P62> 89.2 83.3 10.0 2 620.0    
<P63> 88.5 83.4 10.0 2 630.0    
<P64> 87.4 83.5 10.0 2 640.0    
<P65> 86.1 83.5 10.0 2 650.0    
<P66> 84.8 83.5 10.0 2 660.0    
<P67> 84.1 83.6 6.0 2 666.0     
<GEN> CRS: UTM Zone 16 North, WGS 1984
<HE3>Data Corrected for Probe Rotation using Raw PP
~Tags for comment list:  <GEN>, <STA><Stn>, <STX><Stn>, <STY><Stn>, <STZ><Stn>
~ <RDG><Rdg#>, <MOD>
~Tags for list & plot comments: <SPA><Stn>, <SPX><Stn>, <SPY><Stn>, <SPZ><Stn>
~Tags for headings: <HE1>, <HE2>, <HE3>, <HE4>
Bitterroot
Loop01
BR01
01
July 12, 2020
BH-FLUX Metric Crystal-Master 50.00 1500 67 136
#401 3.02 Jun04,2020 br01 N 1000 500 +

-0.002        -0.0019       -0.0019       -0.0018       -0.0017       -0.0016       -0.0015       
-0.0014       -0.0013       -0.0012       -0.0011       -0.001        -0.0009       -0.0008       
-0.0007       -0.0006       -0.0005       -0.0004       -0.0003       -0.0002       -0.0001       
 0             5e-05         6e-05         8e-05         0.00011       0.00015       0.0002       
 0.00027       0.00036       0.00048       0.00064       0.00085       0.00113       0.0015       
 0.00199       0.00264       0.00351       0.00466       0.00619       0.00822       0.01092      
 0.0144        0.03106       0.04773       0.0485        0.04855       0.04856       0.04858      
 0.04861       0.04865       0.0487        0.04877       0.04886       0.04898       0.04914      
 0.04935       0.04963       0.05          0.05049       0.05114       0.05201       0.05316      
 0.05469       0.05672       0.05942       0.0629        0.07956       0.09623       0.098        
$
50 XR1 0 A 2040.0 0 32 2 1 
D5 0.98269 0.17522 -0.055635 252.384 -79.4037 R1 63.6387 
 9584.68       9578.28       9568.13       9568.13       9582.9        9594.26       9589.67      
 9581.17       9601.26       9643.38       9580.97       9385.81       9118.69       8796.71      
 8433.31       8069.89       7670.48       7232.46       6785.75       6356.84       6018.49      
 5877.64       5810.21       5694.27       5535.22       5328.51       5046.49       4658.36      
 4163.25       3639.41       3171.78       2746.63       2375.13       2053.86       1757.38      
 1515.37       1297.72       1116.8        951.651       811.374       693.855       484.049      
 284.753       225.275       228.214       229.076       227.367       226.108       225.104      
 223.785       235.001       270.801       306.391       68.7392      -607.815      -1637.76      
-2996.85      -4505.68      -5856.94      -6878.54      -7579.53      -8040.52      -8365.02      
-8587.83      -8790.33      -9131.09      -9457.98      -9575.74      

60 XR3 0 A 2040.0 0 32 2 19 
D5 0.98249 0.175225 -0.052295 253.383 -79.4567 R1 63.1025 
 8292.64       8285.04       8284.39       8297.55       8300.86       8308.54       8299.56      
 8294.93       8348.14       8413.97       8398.31       8300.51       8129.87       7891.41      
 7623.39       7331.09       7017.14       6697.92       6360.84       5997.25       5718.36      
 5606.48       5553.4        5461.71       5336.7        5178.44       4963.19       4636.49      
 4169.4        3663.71       3215.83       2805.51       2438.53       2117.71       1829.46      
 1561.48       1357.27       1151.32       996.876       852.808       726.89        500.254      
 295.482       243.361       246.849       238.527       233.367       228.908       226.495      
 224.293       229.877       274.787       375.327       285.004      -208.023      -1002.85      
-2117.82      -3424.76      -4635.29      -5585.32      -6260.11      -6713.76      -7031.82      
-7272.71      -7461.25      -7813.56      -8157.93      -8283.14      

70 XR1 0 A 2040.0 0 32 2 25 
D5 0.976625 0.172635 -0.057945 251.444 -79.4379 R1 60.4889 
 7095.42       7085.97       7088.01       7086.41       7096.73       7100.03       7089         
 7097.42       7161.37       7272.81       7321.23       7276.01       7202.47       7049.23      
 6856.2        6636.67       6404.24       6158.07       5889.06       5613.01       5410.9       
 5327.59       5287.43       5218.3        5118.36       4986.03       4800.16       4532.32      
 4160.57       3705.43       3289.06       2863.4        2486.51       2167.42       1891.52      
 1636.73       1404.25       1207.95       1041.21       888.554       758.256       532.748      
 312.35        241.556       254.283       256.624       257.6         256.2         254.648      
 251.522       257.904       322.029       484.606       500.932       189.25       -410.09       
-1312.03      -2412.04      -3479.7       -4354.21      -4998.13      -5441.06      -5779.49      
-6014.05      -6228.8       -6593.78      -6954.31      -7089.27      

80 XR1 0 A 2040.0 0 32 2 37 
D5 0.97674 0.1782 -0.040905 257.071 -79.3975 R1 62.015 
 6130.19       6129.79       6122.15       6103.6        6084.6        6094.25       6104.46      
 6108.17       6162.73       6292.3        6395.36       6421.48       6383.11       6298.33      
 6175.34       6021.72       5838.36       5654.18       5458.54       5262.01       5112.08      
 5045.79       5013.58       4953.82       4863.27       4749.49       4596.42       4385.38      
 4064.73       3627.91       3217.14       2851.8        2510.73       2191.24       1920.71      
 1653.23       1420.39       1235.35       1060.72       913.243       783.524       539.011      
 317.616       242.236       227.415       226.939       226.884       225.873       224.392      
 223.863       225.971       278.408       463.043       595.807       413.585      -32.0172      
-732.161      -1674.27      -2621.95      -3419.1       -4026.64      -4462.05      -4786.23      
-5031.86      -5237.46      -5611.93      -5976.58      -6106.09      

90 XR1 0 A 2040.0 0 32 2 49 
D5 0.97682 0.175325 -0.0498 254.143 -79.4307 R1 59.0049 
 5005.59       5005.45       5008.54       5006.33       5015.79       5022.99       5028.55      
 5034.89       5075.85       5206.81       5358.34       5449.59       5473.36       5467.24      
 5438.15       5367.26       5286.7        5195.42       5083.07       4954.07       4851.25      
 4807.53       4782.98       4744.58       4688.73       4617.13       4521.68       4361.27      
 4074.96       3707.4        3327.14       2952.3        2611.56       2305.78       2009.72      
 1752.62       1525.37       1315.21       1128.47       976.503       832.413       571.597      
 330.026       239.783       234.998       232.78        235.53        237.145       237.787      
 239.524       252.426       329.747       559.223       780.314       759.291       535.986      
 57.0063      -684.093      -1499.79      -2232.95      -2809.74      -3239.07      -3583.16      
-3835.97      -4061.46      -4465.74      -4852.5       -4988.28      

100 XR1 0 A 2040.0 0 32 2 61 
D5 0.982795 0.176205 -0.04612 255.332 -79.5005 R1 55.247 
 4210.02       4225.17       4231.88       4229.44       4236.93       4248.79       4262.5       
 4253.36       4285.58       4429.43       4610.79       4744.05       4826.9        4862.07      
 4861.85       4835.23       4795.27       4750.78       4675.83       4599.63       4542.87      
 4516.03       4499.82       4474.41       4435.72       4385.22       4311.17       4178.16      
 3924.06       3578.57       3223.98       2910.06       2593.4        2295.19       2011.32      
 1753.62       1521.73       1326.53       1150.66       981.141       841.133       576.3        
 332.04        263.358       262.631       260.437       264.741       265.404       266.626      
 268.901       274.468       331.071       563.798       866.683       952.289       844.678      
 471.514      -124.301      -836.213      -1496.7       -2045.73      -2449.95      -2784.32      
-3046.37      -3261.79      -3672.83      -4071.19      -4210.15      

110 XR1 0 A 2040.0 0 32 2 73 
D5 0.98299 0.17486 -0.05038 253.927 -79.512 R1 53.5823 
 3325.57       3320.67       3331.8        3335.52       3311.13       3304.4        3316.16      
 3326.38       3365.27       3523.81       3747.22       3919.25       4048.76       4153.27      
 4225.98       4274.75       4302.11       4314.27       4309.54       4283.39       4264.73      
 4260.82       4257.4        4250.57       4239.49       4225.07       4195.62       4122.23      
 3923.71       3618.23       3316.87       2987.81       2704.35       2408.89       2123.94      
 1856.61       1612.79       1394.07       1218.39       1047.98       893.157       626.361      
 366.497       277.391       279.478       283.983       285.237       287.595       290.853      
 294.947       293.761       341.603       595.166       982.977       1197.9        1229.82      
 1069.14       652.189       68.8923      -526.559      -1039.88      -1456.47      -1794.94      
-2060.79      -2286.77      -2724.23      -3152.13      -3309.18      

120 XR3 0 A 2040.0 0 32 2 91 
D5 0.982325 0.17791 -0.04968 254.398 -79.3504 R1 48.2649 
 2755.4        2756.65       2743.87       2737.2        2738.26       2739.09       2733.17      
 2736.43       2787.16       2941.49       3150.09       3332.72       3475.35       3596.16      
 3696.21       3749.77       3793.48       3839.24       3871.83       3886.66       3883.58      
 3880.06       3879.8        3882.58       3889.24       3891.67       3882.77       3828.81      
 3671.63       3390.85       3108.98       2827.5        2548.73       2274.27       2009.61      
 1779.53       1543.97       1340.35       1151.19       992.393       852.559       585.319      
 343.608       266.668       247.181       243.008       244.469       242.54        245.646      
 251.983       262.818       320.705       564.279       956.839       1216.53       1314.98      
 1249.34       926.219       439.428      -86.8849      -576.574      -969.431      -1287.62      
-1546.93      -1770.28      -2181.2       -2582.19      -2725.06      

130 XR2 0 A 2040.0 0 32 2 98 
D5 0.98304 0.17335 -0.05736 251.691 -79.4776 R1 35.1056 
 2080.46       2070.54       2068.3        2082.67       2083.96       2092.35       2094.1       
 2086.7        2118.14       2255.07       2450.48       2617.3        2756.68       2874.45      
 2957.09       3018.68       3077.92       3116.66       3144.53       3163.13       3160.92      
 3158.14       3155.4        3150.85       3150.5        3154.21       3149.95       3111.35      
 2991.22       2758.38       2530.31       2274.37       2038.99       1823.8        1612.23      
 1386.68       1197.01       1020.53       877.371       757.978       651.338       453.141      
 273.521       204.629       199.702       204.36        207.431       209.819       209.527      
 208.464       209.389       254.463       470.686       822.262       1065.53       1169.5       
 1114.14       847.181       438.29        25.7622      -375.732      -695.437      -954.71       
-1163.93      -1343.86      -1656.66      -1964.4       -2079.33      

140 XR3 0 A 2040.0 0 32 2 115 
D5 0.98318 0.174205 -0.04909 254.262 -79.5694 R1 25.592 
 1688.77       1684.14       1683.75       1677.89       1673.32       1677.42       1687.24      
 1688.36       1719.55       1822.47       1970.73       2100.79       2180.91       2251.39      
 2314.66       2348.62       2361.93       2379.9        2389.07       2384.32       2373.36      
 2366.84       2363.32       2363.07       2362.57       2357.61       2337.64       2281.28      
 2156.47       1950.71       1733.27       1545.01       1346.21       1157.07       999.157      
 829.401       682.426       553.586       465.988       367.788       310.752       221.63       
 151.003       116.196       108.999       111.855       112.335       112.736       113.993      
 113.563       113.608       145.977       322.888       609.843       785.369       824.853      
 717.585       433.213       66.2502      -297.046      -609.477      -874.005      -1048.84      
-1191.87      -1296.88      -1459.08      -1609.87      -1673.7       

150 XR1 0 A 2040.0 0 32 2 121 
D5 0.98314 0.17493 -0.04669 255.055 -79.5654 R1 26.6155 
 1244.77       1240.55       1238.49       1239.66       1240.68       1261.45       1271.53      
 1284.65       1305.56       1405.55       1591.19       1757.6        1881.7        1981.92      
 2063.45       2141.22       2197.33       2251.85       2297.67       2333.36       2365.68      
 2381.32       2383.87       2392.05       2398.14       2402.94       2407.93       2384.91      
 2292.59       2120.31       1908.93       1693.72       1484.55       1290.74       1108.05      
 933.863       747.341       621.951       512.576       418.458       349.713       247.215      
 164.651       150.56        128.601       131.918       138.935       139.026       137.478      
 128.868       125.158       159.812       351.042       679.328       928.87        1090.43      
 1114.65       948.175       623.855       249.116      -62.1883      -343.658      -558.052      
-708.099      -824.144      -996.273      -1168.97      -1230.63      

160 XR3 0 A 2040.0 0 32 2 139 
D5 0.982725 0.176835 -0.04829 254.726 -79.4339 R1 11.5637 
 1053.26       1045.69       1040.56       1049.12       1050.79       1060.64       1068.75      
 1071.33       1102.3        1175.27       1270.77       1363.4        1433.44       1479.94      
 1507.72       1531.2        1538.63       1527.75       1518.98       1497.15       1472.04      
 1461.22       1454.77       1445.79       1434.97       1419.83       1395.43       1348.26      
 1232.32       1044.86       845.173       632.868       449.302       275.564       136.235      
 24.856       -86.326       -153.263      -193.708      -211.375      -196.83       -127.362      
-41.2146      -10.0153      -13.9434      -11.9262      -10.2835      -9.91853      -14.8547      
-18.6593      -20.7185       6.33428       140.329       366.819       494.525       490.003      
 363.73        62.3664      -300.129      -649.473      -916.4        -1095.09      -1196.12      
-1242.78      -1240.87      -1162.35      -1077.91      -1052.97      

170 XR1 0 A 2040.0 0 32 2 145 
D5 0.982495 0.17713 -0.0445 255.897 -79.4696 R1 8.30351 
 790.083       788.581       782.089       791.045       795.882       789.074       783.799      
 781.394       797.619       868.18        980.794       1087.86       1163.63       1208.2       
 1241.71       1258.27       1270.57       1273.54       1261.75       1239.03       1218.26      
 1207.33       1201.58       1192.19       1179.76       1164.41       1142.06       1091.44      
 981.845       811.981       603.609       394.69        199.355       26.177       -137.699      
-261.733      -350.404      -414.188      -433.648      -431.839      -387.698      -261.764      
-112.064      -64.6813      -60.7084      -63.7965      -62.1553      -65.0358      -66.5516      
-68.1768      -63.7977      -40.0764       68.6487       288.167       439.688       454.277      
 344.876       65.5316      -313.595      -687.716      -942.461      -1108.53      -1200.94      
-1208.35      -1173.56      -1021.69      -841.201      -797.569      

180 XR1 0 A 2040.0 0 32 2 157 
D5 0.97717 0.155065 -0.096715 238.048 -79.4065 R1 356.967 
 382.889       390.062       396.833       388.862       388.197       388.762       385.406      
 385.782       404.578       484.974       637.092       798.315       934.046       1050.99      
 1158.77       1244.17       1320.96       1392.62       1455.06       1500.16       1515.89      
 1520.57       1522.85       1531.22       1542.93       1561.29       1576.49       1579.35      
 1522.8        1368.73       1156.28       932.854       721.966       507.748       299.516      
 128.68       -12.4639      -109.123      -169.059      -195.034      -199.907      -128.768      
-40.3596      -13.6051      -8.82889      -8.24042      -8.42925      -9.13932      -4.09016      
 4.27209       12.7016       30.0759       153.15        434.81        714.181       929.842      
 1007.19       884.6         578.78        211.186      -113.995      -342.22       -480.033      
-558.165      -564.25       -506.793      -419.335      -389.782      

190 XR1 0 A 2040.0 0 32 2 169 
D5 0.976955 0.176355 -0.04351 256.141 -79.4671 R1 29.5511 
-310.512      -303.021      -308.576      -313.673      -306.115      -300.7        -298.477      
-296.082      -275.318      -175.973       26.5668       280.996       536.575       787.604      
 1023.02       1246.63       1473.59       1683.5        1879.73       2063.2        2197.14      
 2252.14       2280.43       2326.8        2390.35       2465.83       2553.59       2648.51      
 2700.11       2630.55       2478.54       2282.17       2041.95       1777.94       1524.29      
 1283.19       1060.98       859.247       717.731       584.754       494.574       345.04       
 219.955       196.242       197.42        192.79        189.844       185.797       182.242      
 180.541       179.5         205.373       386.786       815.028       1365.98       1907.71      
 2390.83       2627.94       2566.99       2261.24       1867.95       1535.22       1262.55      
 1048.34       892.224       639.93        407.281       315.366      

200 XR3 0 A 2040.0 0 32 2 187 
D5 0.982837 0.17551 -0.05014 254.056 -79.4789 R1 46.271 
-1014.78      -1011.9       -1001.02      -997.581      -1003.65      -1003.35      -992.048      
-996.055      -974.424      -842.778      -577.624      -247.977       117.962       504.852      
 885.848       1263.74       1627.24       1978.38       2324.93       2673.98       2925.1       
 3024.27       3070.96       3151.61       3261.63       3401.13       3579.68       3788.7       
 3975.07       4068.35       4033.4        3904.23       3699.15       3441.59       3141.69      
 2834.99       2538.88       2255.73       2001.27       1756.64       1516.82       1049.25      
 592.514       454.305       439.361       437.967       438.227       434.831       433.323      
 436.671       444.103       473.846       661.592       1213.81       2021.59       2953.09      
 3898.37       4589.04       4833.97       4675.37       4294.15       3867.23       3439.5       
 3063.5        2704.64       1989          1280.21       1027.09      

210 XR3 0 A 2040.0 0 32 2 205 
D5 0.98302 0.172925 0.051745 286.659 -79.5954 R1 84.7702 
-1588.52      -1585.65      -1580.79      -1588.72      -1589.94      -1580.85      -1591.01      
-1585.94      -1554.41      -1441.53      -1175.61      -807.445      -396.371       16.0165      
 453.342       903.504       1345.52       1772.54       2194.59       2616.11       2913.18      
 3025.9        3088          3184.87       3325.1        3503.87       3731.8        4000.68      
 4261.22       4429.35       4473.23       4393.54       4234.58       4010.28       3715.05      
 3417.66       3093.12       2801.17       2503.32       2213.07       1929.27       1326.68      
 751.985       558.996       538.897       533.033       528.954       527.295       525.384      
 531.31        545.409       572.97        757.737       1358.31       2265.18       3358.82      
 4524.88       5448.51       5901.73       5860.56       5529.33       5089.81       4619.18      
 4192.36       3758.27       2857.12       1952.36       1624.61      

220 XR1 0 A 2040.0 0 32 2 211 
D5 0.982697 0.176443 -0.0502533 254.102 -79.4251 R1 58.1764 
-1744.44      -1741.28      -1739.76      -1733.51      -1720.42      -1719.2       -1714.08      
-1712.64      -1693.31      -1575.6       -1315.29      -936.597      -497.424      -36.6849      
 431.316       912.899       1393.52       1859.47       2328.17       2807.44       3155.2       
 3288.05       3354.08       3458.94       3605.07       3792.43       4045.71       4364.09      
 4691.54       4903.44       4986.03       4954.23       4812.17       4597.72       4333.15      
 4020.69       3690.36       3350.09       3022.73       2690.49       2343.95       1616.85      
 898.042       657.139       647.833       651.798       654.088       653.441       655.389      
 655.289       653.532       671.943       856.873       1466.16       2435.57       3628.34      
 4951.84       6038.68       6601.22       6641.55       6321.99       5858.61       5360.66      
 4857.35       4348.67       3262.28       2161.51       1785.07      

230 XR1 0 A 2040.0 0 32 2 229 
D5 0.982695 0.177345 -0.047935 254.875 -79.4111 R1 65.0636 
-1969.11      -1957.52      -1957.68      -1966.41      -1950.08      -1924.21      -1920.69      
-1925.53      -1907.49      -1785.91      -1498.87      -1100.58      -641.437      -158.158      
 354.672       876.445       1406.73       1932.39       2451.44       2964.78       3341.76      
 3490.74       3567.21       3690.6        3862.99       4082.4        4367.04       4719.12      
 5083.18       5372.71       5511.11       5542.21       5444.66       5252.38       4988.89      
 4684.68       4343.99       3987.14       3616.89       3241.17       2844          1974.85      
 1102.1        804.695       791.498       792.732       790.89        791.308       788.969      
 790.035       796.4         825.665       1019.8        1639.46       2670.61       3964.72      
 5423.8        6691.72       7392.98       7544.91       7265.41       6788.84       6247.9       
 5681          5094.1        3800.73       2467.23       1995.29      

240 XR1 0 A 2040.0 0 32 2 241 
D5 0.982835 0.179955 -0.031055 260.209 -79.4742 R1 74.8254 
-2197.05      -2191.25      -2175.88      -2154.51      -2149.93      -2151.68      -2152.39      
-2162.1       -2131.51      -1991.79      -1703.76      -1284.55      -794.655      -274.865      
 266.091       809.662       1365.4        1934.04       2495.65       3043.31       3454.39      
 3618.32       3700.37       3834.37       4018.01       4249.41       4552.61       4945.15      
 5360.89       5678.92       5882.57       5943.8        5890.56       5711.13       5460.65      
 5153.18       4808.77       4446.85       4048.67       3636.14       3192.98       2213.46      
 1229.21       910.638       905.028       903.694       899.082       893.833       889.07       
 881.356       869.434       886.075       1097.79       1758.8        2852.35       4236.29      
 5820.56       7205.49       8024.5        8238.28       8007.1        7549.44       6981.32      
 6380.17       5717.48       4265.27       2766.95       2239.02      

250 XR3 0 A 2040.0 0 32 2 259 
D5 0.98233 0.176553 -0.0465367 255.233 -79.4707 R1 68.6483 
-2139.5       -2132.1       -2126.85      -2121.97      -2120.24      -2117.13      -2117.78      
-2118.79      -2087.88      -1965.53      -1659.44      -1219.26      -719.517      -177.679      
 383.11        954.456       1537.53       2122.43       2699.46       3257.59       3671.89      
 3837.68       3922.46       4062.68       4256.01       4498.51       4810.21       5204.63      
 5636.7        5972.31       6172.72       6216          6152.12       5979.52       5716.11      
 5400.08       5031.33       4651.83       4236.46       3787.07       3320.14       2312.62      
 1283.53       936.938       930.72        924.711       927.629       925.279       920.721      
 920.597       923.599       945.544       1144.87       1830.32       2948.18       4401.99      
 6012.94       7441.87       8271.18       8496.81       8251.2        7749.94       7159.91      
 6502.94       5823.02       4294.13       2735.44       2198.96      

260 XR1 0 A 2040.0 0 32 2 265 
D5 0.982925 0.174745 -0.045785 255.318 -79.5863 R1 66.2816 
-2096.42      -2098.24      -2086.16      -2073.12      -2084.71      -2086.34      -2089.84      
-2088.2       -2065.05      -2005.85      -1847.34      -1567.35      -1209.95      -797.905      
-346.806       139.588       660.45        1188.75       1696.02       2210.32       2595.05      
 2745.27       2826.04       2952.38       3135.61       3371.35       3684.92       4094.42      
 4572.87       5013.55       5368.33       5597.9        5664.46       5595.9        5429.15      
 5164.83       4842.14       4464.82       4070.07       3650.92       3189.16       2206.88      
 1219.49       880.7         862.347       866.073       867.055       866.878       869.041      
 863.326       852.939       853.585       933.231       1310.18       2162.01       3408.13      
 4963.79       6485.2        7567.57       7980.58       7868.86       7455.1        6901.3       
 6289.62       5628.08       4160.24       2666.01       2129.35      

265 XR3 0 A 2040.0 0 32 2 295 
D5 0.983505 0.17279 -0.043865 255.756 -79.7261 R1 64.3061 
-2136.68      -2118.46      -2111.42      -2124.33      -2124.77      -2106.73      -2094.17      
-2085.71      -2081.99      -2054.07      -1928.18      -1693.06      -1374.2       -996.182      
-564.698      -101.989       378.929       866.843       1357.04       1871.26       2263.7       
 2412.55       2490.41       2613.53       2785.39       3006.83       3305.84       3692.08      
 4154.96       4657.76       5052.71       5345          5474.98       5469.98       5319.91      
 5083.1        4762.67       4401.09       3985.25       3562.42       3118.31       2141.15      
 1190.22       876.555       893.35        891.869       890.396       886.286       881.406      
 879.194       870.12        854.374       897.988       1227.03       1977.63       3141.15      
 4647.54       6189.16       7334.01       7839.47       7787.02       7399.94       6857.54      
 6238.02       5579.76       4139.74       2683.68       2178.22      

270 XR3 0 A 2040.0 0 32 2 283 
D5 0.98412 0.16834 -0.045235 254.959 -79.9557 R1 70.9539 
-2255.75      -2258.15      -2255.14      -2242.83      -2239.18      -2242.66      -2242.72      
-2242.76      -2233.55      -2209.95      -2165.56      -2069.57      -1892.69      -1635.37      
-1340.08      -1011.2       -645.986      -241.517       195.72        627.32        964.618      
 1103.23       1174.81       1291.28       1456.23       1661.81       1933.7        2296.01      
 2767.9        3335.64       3945.06       4432.17       4806.26       5010.03       5048.59      
 4931.08       4709.37       4388.96       4036.88       3636.62       3208          2248.17      
 1261.31       930.775       914.7         916.876       918.879       920.114       919.791      
 916.072       906.498       903.027       914.903       1020.13       1444.04       2319.07      
 3646.09       5241.31       6628.05       7495.66       7714.11       7483.43       7016.27      
 6441.04       5799.96       4360.61       2851.29       2303.85      

275 XR1 0 A 2040.0 0 32 2 301 
D5 0.984495 0.166655 -0.045435 254.75 -80.0483 R1 75.8852 
-2448.93      -2436.58      -2421.02      -2401.07      -2394.05      -2404.45      -2395.98      
-2386.8       -2386.51      -2384.73      -2374.85      -2342.24      -2291.77      -2206.03      
-2082.12      -1916.43      -1710.99      -1474.61      -1222.79      -949.284      -734.853      
-639.15       -589.503      -502.272      -380.493      -233.812      -54.2946       194.419      
 552.317       1058.09       1653.35       2335.81       2985.3        3495.74       3855.42      
 3995.75       3958.2        3807.94       3577.1        3289.56       2943.28       2163.83      
 1267.68       936.171       939.165       936.486       933.555       929.849       925.79       
 921.056       908.014       888.633       888.149       939.909       1050.68       1434.6       
 2260.83       3488.84       4917.26       6119.36       6764.2        6865.31       6608.01      
 6182.34       5677.64       4423.76       3002.99       2469.37      

280 XR1 0 A 2040.0 0 32 2 313 
D5 0.97899 0.165585 -0.041395 255.964 -80.11 R1 86.7466 
-2545.11      -2524.74      -2494.92      -2500.38      -2530.44      -2544.38      -2524.61      
-2494.66      -2472.04      -2474.31      -2484.82      -2479.6       -2419.93      -2348.29      
-2267.2       -2137.68      -1984.74      -1830.83      -1641.36      -1431.41      -1270.81      
-1204.98      -1173.29      -1116.92      -1034.18      -924.755      -764.038      -534.516      
-248.639       104.871       561.884       1056.26       1553.48       2009.05       2344.23      
 2566.52       2678.51       2703.46       2682.98       2618.48       2496.68       1974.74      
 1242.98       951.513       949.643       952.029       951.902       949.146       942.457      
 934.604       930.532       932.038       925.066       928.481       1052.24       1338.8       
 1904.66       2852.2        3916.71       4879.58       5449.14       5686.54       5693.54      
 5517.02       5259.49       4333.96       3087.03       2574.14      

285 XR3 0 A 2040.0 0 32 2 331 
D5 0.9848 0.16439 -0.043635 255.135 -80.2012 R1 85.1279 
-2498.55      -2481.74      -2472.17      -2497.69      -2503.9       -2494.03      -2487.86      
-2501.63      -2502.85      -2505.84      -2495.75      -2470.99      -2408.94      -2320.97      
-2212.08      -2077.48      -1937.81      -1777.78      -1589.12      -1400.96      -1250.27      
-1188.65      -1158.44      -1103.64      -1029.78      -929.763      -785.355      -585.201      
-330.327       7.81391       402.968       832.574       1273.28       1651.95       1936.59      
 2114.5        2239.55       2296.42       2304.43       2274.88       2196.71       1796.81      
 1155.26       885.672       876.331       878.239       876.492       875.737       874.336      
 866.774       854.156       840.74        850.015       880.505       996.631       1310.06      
 1861.44       2696.75       3654.77       4491.65       5010.87       5212.38       5228.56      
 5112.58       4908.56       4134.9        3019.39       2558.81      

290 XR3 0 A 2040.0 0 32 2 343 
D5 0.97964 0.162965 -0.04435 254.776 -80.218 R1 77.0352 
-2354.17      -2358.04      -2354.37      -2357.28      -2352.69      -2348.35      -2349.04      
-2349.11      -2347.86      -2339.23      -2341.29      -2324.61      -2271.35      -2212.16      
-2132.85      -2035.39      -1929.28      -1797.78      -1637.38      -1454.15      -1292.8       
-1229.48      -1198.46      -1147.98      -1078.31      -991.367      -877.884      -730.045      
-513.844      -187.452       208.108       633.322       1072.32       1426.34       1704.56      
 1888.25       1979.43       2003.65       1993.36       1963.66       1892.5        1538.49      
 984.846       752.529       757.137       761.184       762.752       766.276       767.892      
 769.825       765.819       755.892       746.742       762.931       828.676       1060.69      
 1574.84       2345.97       3256.68       4056.53       4543.39       4742.62       4731.03      
 4613.39       4427.62       3760.6        2800.55       2398.28      

300 XR5 0 A 2040.0 0 32 2 361 
D5 0.98202 0.151688 -0.048432 252.292 -80.7896 R1 76.1748 
-2467.34      -2475.65      -2472.42      -2460.46      -2453.57      -2449.89      -2434.43      
-2422.44      -2427.77      -2438.29      -2424.82      -2411.93      -2393.5       -2362.22      
-2310.92      -2240.82      -2162.31      -2072.81      -1957.65      -1832.64      -1739.79      
-1706.46      -1690.67      -1662.92      -1625.63      -1570.44      -1486.97      -1364.77      
-1192.37      -973.06       -711.448      -412.172      -104.194       167.362       402.661      
 574.274       708.531       815.518       911.443       987.677       1036.5        961.395      
 702.225       579.543       606.822       604.319       603.228       595.147       586.354      
 573.446       563.736       565.056       570.934       581.114       634.1         772.434      
 1104.95       1655.22       2275.83       2848.44       3265.41       3473.61       3581.03      
 3622.83       3615.02       3323.63       2757.39       2485.79      

310 XR3 0 A 2040.0 0 32 2 373 
D5 0.98772 0.148135 -0.043785 253.533 -81.1115 R1 78.131 
-2379.22      -2393.58      -2410.39      -2399.26      -2398.14      -2403.86      -2409.57      
-2395.1       -2391.77      -2384.67      -2379.42      -2364.2       -2336.9       -2314.33      
-2285.47      -2235.65      -2158.09      -2071.97      -2009.12      -1912.2       -1818.36      
-1781.46      -1762.07      -1731.86      -1692.98      -1644.61      -1588.85      -1513.43      
-1384.96      -1194.21      -989.17       -742.057      -456.233      -198.548       55.2954      
 246.796       418.741       548.953       635.194       698.011       748.717       712.322      
 548.592       453.984       430.076       422.655       421.481       417.765       420.808      
 430.975       448.634       458.588       453.094       465.452       503.617       641.792      
 888.894       1313.38       1865.2        2389.81       2805.5        3072.88       3201.2       
 3264.08       3267.38       3057.78       2630.89       2421.61      

320 XR3 0 A 2040.0 0 32 2 385 
D5 0.98263 0.14364 -0.04569 252.354 -81.2788 R1 78.4091 
-2485.43      -2482.8       -2487.18      -2492.79      -2486.13      -2479.19      -2473.23      
-2480.64      -2469.69      -2458.04      -2457.77      -2466.77      -2464.27      -2442.28      
-2404.36      -2341.38      -2286.86      -2231.37      -2140.27      -2058.66      -1996.02      
-1971.2       -1958.53      -1934.18      -1898.25      -1849.95      -1779.04      -1685.44      
-1563.35      -1377.62      -1166.59      -916.882      -612.271      -305.735       7.973        
 281.866       516.565       676.935       776.907       838.486       839.117       710.787      
 505.555       424.452       425.077       426.33        423.079       417.633       411.627      
 403.723       393.039       392.371       397.448       414.292       445.614       559.74       
 784.073       1188.24       1735.83       2330.57       2841.6        3195.92       3389.64      
 3468.28       3447.14       3143.71       2691.5        2498.12      

330 XR3 0 A 2040.0 0 32 2 397 
D5 0.989075 0.1381 -0.041225 253.379 -81.7095 R1 83.044 
-2545.7       -2551.74      -2535.12      -2512.59      -2501.93      -2497.27      -2497.36      
-2502.58      -2509.09      -2520.59      -2513.05      -2492.03      -2496.57      -2496.19      
-2464.38      -2415.62      -2355.76      -2304.29      -2256.81      -2199.41      -2159.06      
-2144.15      -2134.88      -2118.46      -2090.26      -2047.39      -1989.97      -1915.39      
-1833.33      -1701.12      -1517.63      -1291.36      -1039.53      -750.867      -464.93       
-197.632       39.8754       251.922       399.304       499.251       533.351       453.115      
 354.688       320.569       335.08        330.005       329.705       330.368       331.934      
 339.061       344.022       327.594       308.776       313.101       328.945       421.013      
 615.928       923.59        1363.26       1874.37       2347.41       2731.3        2982.9       
 3119.8        3159.81       2967          2670.94       2550.2       

340 XR3 0 A 2040.0 0 32 2 409 
D5 0.98899 0.13579 -0.05021 249.707 -81.6718 R1 80.0125 
-2256.38      -2248.43      -2246.51      -2242.43      -2241.24      -2249.33      -2258.07      
-2260.26      -2258.95      -2266.83      -2258.59      -2238.78      -2228.49      -2204.26      
-2179.07      -2165.36      -2133.79      -2075.47      -2035.41      -1982.57      -1930.98      
-1912.68      -1901.5       -1889.07      -1870.81      -1839.68      -1787.08      -1725.81      
-1650.95      -1537.77      -1404.86      -1248.38      -1059.96      -844.026      -649.089      
-435.715      -250.378      -63.5752       75.7226       180.935       243.562       252.776      
 239.032       231.938       229.645       236.833       239.847       237.341       225.539      
 210.358       205.185       216.885       214.329       219.987       263.995       359.709      
 496.787       736.327       1099.82       1469.35       1836.78       2123.51       2359.06      
 2502          2572.74       2513.31       2350.28       2262.11      

350 XR3 0 A 2040.0 0 32 2 421 
D5 0.98359 0.137125 -0.04147 253.174 -81.7131 R1 84.2443 
-1999.26      -2002.09      -2007.37      -2007.83      -2008.5       -2005.72      -1993.32      
-1995.52      -1992.33      -1991.22      -1996.6       -2009.4       -1997.05      -1980.65      
-1968.42      -1957.49      -1946.82      -1941.25      -1919.98      -1895.15      -1878.59      
-1870.79      -1864.87      -1854.3       -1838.43      -1816.17      -1790.93      -1776.49      
-1748         -1660.15      -1562.62      -1440.9       -1280.58      -1086.01      -894.109      
-705.87       -514.427      -344.512      -209.882      -94.3568      -32.1692       49.9016      
 108.378       115.309       122.691       131.61        132.063       140.865       145.666      
 141.524       123.611       110.732       116.695       118.074       131.023       150.19       
 212.408       359.796       603.18        927.319       1266.69       1549.4        1757.66      
 1927.59       2019.67       2067.59       2040.16       2000.88      

355 XR3 0 A 2040.0 0 32 2 445 
D5 0.988675 0.137335 -0.04089 253.419 -81.7533 R1 86.2156 
-1898.94      -1886.75      -1881.77      -1886.65      -1876.11      -1872.08      -1882.49      
-1890.69      -1885.64      -1881.24      -1894.94      -1901.13      -1893.54      -1871.46      
-1876.1       -1880.97      -1872.07      -1841.31      -1832.77      -1832.93      -1820.15      
-1809.64      -1804.83      -1794.7       -1782         -1771.73      -1761.81      -1747.14      
-1714.62      -1659.67      -1587.05      -1486.79      -1364.54      -1198.75      -1034.38      
-856.829      -675.059      -524.918      -395.163      -308.689      -228.163      -129.269      
-8.51626       34.8399       41.3803       39.4543       42.666        37.2783       30.0382      
 16.282        6.1354        6.11035       15.2879       30.5512       57.6909       54.394       
 92.2557       195.854       382.65        655.718       949.841       1216.84       1431.75      
 1579.55       1670.39       1790.21       1868.01       1889.33      

360 XR3 0 A 2040.0 0 32 2 433 
D5 0.98911 0.137875 -0.039745 253.919 -81.7458 R1 90.2547 
-1704.24      -1706.28      -1705.66      -1706.28      -1701.85      -1694.27      -1685.96      
-1680.35      -1687.74      -1688.81      -1693.89      -1704.42      -1722.01      -1720.05      
-1714.54      -1709.93      -1700.12      -1678.62      -1673.46      -1680.11      -1678.38      
-1674.44      -1670.54      -1664.38      -1652.72      -1641.4       -1634.42      -1626.33      
-1601.96      -1566.02      -1513.08      -1444.25      -1345.22      -1233.01      -1103.74      
-981.621      -860.632      -772.856      -688.702      -631.727      -585.817      -441.529      
-221.217      -128.53       -111.486      -110.542      -111.745      -112.163      -115.203      
-115.129      -117.643      -128.538      -137.389      -137.786      -133.869      -117.701      
-83.007       -22.2429       114.052       327.98        539.332       742.581       899.231      
 1021.46       1115.93       1321.88       1582.45       1682.5       

365 XR1 0 A 2040.0 0 32 2 451 
D5 0.98903 0.13667 -0.04265 252.669 -81.7632 R1 93.7871 
-1464.29      -1462.19      -1473.43      -1472.22      -1463.31      -1466.14      -1487.67      
-1505.19      -1494.2       -1501.37      -1514.88      -1516.31      -1503.18      -1505.87      
-1518.46      -1522.52      -1509.61      -1485.25      -1488.69      -1505.19      -1496.34      
-1484.91      -1476.53      -1463.91      -1451.95      -1445.62      -1445.37      -1441.63      
-1439.01      -1415.63      -1344.42      -1340.45      -1280.49      -1227.17      -1157.24      
-1114.4       -1081.06      -1044.14      -1035.6       -1019.37      -994.497      -794.43       
-463.36       -315.897      -299.585      -296.71       -294.834      -294.345      -292.512      
-294.68       -299.247      -300.808      -303.178      -315.989      -299.076      -288.028      
-261.782      -198.436      -117.377       15.8537       135.139       231.849       311.937      
 382.188       470.235       794.737       1273.48       1468.32      

370 XR1 0 A 2040.0 0 32 2 463 
D5 0.98924 0.135795 -0.042495 252.624 -81.8149 R1 94.4859 
-1378.26      -1378.52      -1393.57      -1395.12      -1391.96      -1381.41      -1372.03      
-1381.35      -1406.22      -1410.53      -1400.24      -1397.07      -1390.46      -1401.14      
-1414.52      -1419.25      -1398.68      -1382.57      -1382.41      -1377.8       -1368.84      
-1364.42      -1360.94      -1356.92      -1350.12      -1347.67      -1344.99      -1345.05      
-1341.93      -1301.25      -1266.03      -1234.95      -1222.7       -1199.73      -1177.67      
-1136.38      -1142.17      -1151.18      -1137.91      -1141.86      -1107.32      -880.956      
-508.941      -347.126      -344.596      -341.453      -342.474      -339.323      -336.004      
-339.511      -347.558      -353.472      -355.129      -364.543      -345.727      -315.977      
-284.829      -225.089      -160.969      -68.7182      -0.242123      56.5062       96.9452      
 161.452       246.169       604.69        1149.88       1363.69      

380 XR3 0 A 2040.0 0 32 2 481 
D5 0.989795 0.134815 -0.03783 254.326 -81.948 R1 96.9591 
-1267.23      -1256.93      -1255.66      -1272.52      -1283.38      -1279.79      -1282.85      
-1283.15      -1293.33      -1295.74      -1292.91      -1290.39      -1288.21      -1280.15      
-1273.44      -1269.85      -1265.67      -1262.32      -1247.59      -1227.78      -1226.32      
-1231.26      -1234.38      -1237.61      -1239.25      -1239.03      -1233.07      -1208.87      
-1178.95      -1164.62      -1146.98      -1140.9       -1129.55      -1111.51      -1103.96      
-1130.56      -1144.75      -1165.05      -1172.64      -1174.14      -1131.35      -889.065      
-516.323      -349.505      -337.349      -341.598      -339.682      -344.446      -351.314      
-368.309      -379.524      -362.464      -344.916      -344.159      -336.962      -295.468      
-272.6        -205.791      -162.598      -115.69       -64.0647      -53.5099      -29.2208      
 16.3381       107.65        498.296       1046.55       1261.14      

390 XR3 0 A 2040.0 0 32 2 493 
D5 0.99023 0.132505 -0.036535 254.585 -82.0975 R1 96.5881 
-1248.57      -1239.3       -1244.66      -1256.42      -1242.32      -1240.44      -1246.34      
-1249.26      -1249.53      -1243.57      -1242.59      -1232.16      -1220.28      -1216.09      
-1223.11      -1227.95      -1226.8       -1213.86      -1202.73      -1189.05      -1178.77      
-1176.32      -1174.56      -1168.58      -1160.16      -1146.78      -1129.82      -1105.61      
-1089.75      -1089.66      -1073.4       -1061.73      -1052.12      -1060.7       -1050.62      
-1059.82      -1080.97      -1091.2       -1091.5       -1086.23      -1037.67      -793.753      
-453.535      -314.576      -318.27       -317.715      -312.623      -313.876      -309.655      
-305.441      -303.096      -305.743      -316.563      -297.487      -279.592      -251.695      
-170.433      -113.902      -86.7546      -35.8         -1.842        -3.42862       9.11362      
 65.5603       165.548       538.344       1031.5        1228.02      

400 XR4 0 A 2040.0 0 32 2 506 
D5 0.99014 0.132893 -0.0350667 255.219 -82.0973 R1 97.9984 
-1209.77      -1217.75      -1221.8       -1224.33      -1230.32      -1226.43      -1220.03      
-1223.06      -1230.83      -1241.14      -1229.56      -1213.5       -1210.62      -1209.35      
-1191.4       -1188.65      -1181.23      -1169.65      -1165.09      -1146         -1131.38      
-1124.86      -1120.52      -1117.77      -1119.85      -1126.32      -1130.18      -1119.66      
-1107.21      -1093.82      -1073.35      -1076.8       -1060.36      -1045.6       -1044.98      
-1045.09      -1047.74      -1045.43      -1041.02      -1010.27      -944.719      -712.25       
-392.12       -266.733      -266.827      -268.698      -271.188      -274.2        -279.953      
-283.46       -281.412      -276.727      -275.395      -247.722      -232.128      -204.713      
-172.899      -125.155      -66.0997      -23.8082       7.69443       15.1212       58.6182      
 115.253       221.854       578.743       1028.79       1197.49      

410 XR1 0 A 2040.0 0 32 2 511 
D5 0.9898 0.135 -0.03161 256.822 -82.0259 R1 97.8209 
-1159.36      -1146.5       -1160.13      -1154.13      -1131.6       -1137.76      -1154.14      
-1158.88      -1172.11      -1175.14      -1171.59      -1166.44      -1158.99      -1160.13      
-1148.42      -1123.93      -1125.41      -1119.5       -1117.27      -1108.74      -1093.46      
-1086.53      -1081.18      -1073.05      -1062.52      -1057.03      -1054.81      -1051.57      
-1030.85      -1010.65      -1010.92      -1008.32      -987.91       -989.691      -981.595      
-981.725      -977.175      -971.013      -961.92       -914.596      -844.169      -624.358      
-333.064      -239.499      -222.071      -217.813      -220.316      -221.342      -218.842      
-212.154      -202.92       -210.715      -233.366      -222.474      -200.361      -175.89       
-135.536      -88.0031      -46.612       -22.8168       19.7191       40.407        88.9376      
 167.136       267.142       589.108       989.426       1129.59      

420 XR3 0 A 2040.0 0 32 2 529 
D5 0.989803 0.133 -0.0388833 253.704 -82.0307 R1 95.1539 
-1102.16      -1105.74      -1090.67      -1090.06      -1078.46      -1080.38      -1102.99      
-1120.34      -1121.07      -1121.95      -1121.87      -1124.34      -1117.83      -1105.19      
-1090.63      -1084.94      -1093.12      -1083.48      -1063.35      -1058.69      -1058.63      
-1057.2       -1055.16      -1051.35      -1047.28      -1047.3       -1045.38      -1041.85      
-1029.16      -1001.6       -992.193      -982.983      -967.796      -975.381      -960.572      
-950.08       -927.989      -918.55       -889.099      -843.091      -775.173      -564.974      
-302.007      -215.694      -194.835      -197.148      -198.799      -202.267      -206.228      
-208.615      -203.4        -188.332      -169.414      -182.877      -183.531      -174.961      
-154.099      -110.348      -59.6188      -14.2821       17.6996       54.3457       99.5415      
 175.659       274.665       587.465       951.686       1077.08      

430 XR3 0 A 2040.0 0 32 2 541 
D5 0.9899 0.134035 -0.037595 254.332 -81.9951 R1 94.3654 
-1020.25      -1012.08      -1017.38      -1020.98      -1028.91      -1026.38      -1019.56      
-1014.04      -1016.35      -1018.98      -1020.13      -1026.86      -1027.48      -1030.25      
-1028.28      -1022.65      -1011.06      -991.669      -983.128      -989.854      -998.046      
-999.815      -997.472      -993.367      -988.982      -981.762      -974.946      -964.776      
-952.542      -942.67       -953.324      -927.558      -912.049      -896.492      -884.392      
-870.597      -872.327      -855.336      -822.004      -769.972      -703.571      -503.145      
-270.91       -188.125      -166.061      -164.214      -162.778      -163.062      -167.41       
-176.775      -187.873      -193.798      -179.554      -161.873      -164.038      -172.29       
-146.556      -111.414      -66.3769      -34.1078       18.7349       51.1629       85.2865      
 165.75        266.748       557.192       890.438       1003.16      

440 XR3 0 A 2040.0 0 32 2 553 
D5 0.989855 0.132965 -0.03616 254.786 -82.075 R1 94.313 
-958.467      -955.331      -965.211      -966.007      -962.337      -963.584      -984.444      
-992.765      -973.223      -972.31       -990.149      -997.547      -976.539      -972.714      
-971.254      -972.252      -967.335      -953.961      -949.198      -946.515      -938.79       
-939.001      -936.779      -933.231      -931.294      -928.379      -928.788      -925.623      
-910.71       -904.035      -899.599      -890.476      -877.053      -859.07       -850.49       
-818.57       -797.469      -773.956      -744.811      -692.258      -633.299      -461.031      
-253.361      -171.495      -165.705      -162.666      -162.698      -162.44       -159.973      
-156.937      -157.869      -157.014      -160.442      -160.144      -152.838      -146.237      
-115.669      -90.9363      -57.6342      -16.8468       26.8074       62.6786       120.476      
 204.052       286.412       552.977       854.373       962.517      

450 XR3 0 A 2040.0 0 32 2 565 
D5 0.989755 0.13154 -0.03857 253.658 -82.1148 R1 92.0605 
-907.875      -902.404      -905.247      -915.245      -928.769      -936.85       -934.981      
-934.631      -924.603      -906.065      -900.244      -893.942      -902.876      -912.255      
-913.985      -910.578      -913.077      -911.637      -903.966      -906.498      -909.703      
-909.044      -906.807      -902.515      -895.481      -882.438      -869.547      -865.025      
-866.055      -858.897      -851.295      -858.63       -809.13       -789.915      -801.866      
-780.402      -757.611      -739.394      -696.148      -652.458      -596.363      -419.907      
-227.171      -165.345      -179.506      -171.791      -171.305      -168.382      -168.116      
-172.621      -172.309      -167.41       -163.192      -156.142      -169.752      -174.142      
-130.229      -88.1729      -73.3061      -47.6196       14.3839       53.5906       108.091      
 172.529       253.204       510.7         788.592       893.536      

460 XR3 0 A 2040.0 0 32 2 577 
D5 0.99003 0.12971 -0.038255 253.568 -82.2218 R1 90.7522 
-853.169      -857.198      -852.98       -842.188      -837.559      -840.509      -851.365      
-854.019      -852.481      -839.462      -835.795      -842.274      -844.672      -840.74       
-841.864      -840.997      -836.396      -816.03       -812.635      -824.958      -823.372      
-824.99       -820.148      -820.66       -823.009      -825.202      -820.41       -806.192      
-797.903      -790.03       -796.818      -773.771      -755.498      -767.947      -742.506      
-721.481      -707.785      -690.21       -657.386      -602.838      -548.1        -392.602      
-216.408      -152.573      -135.945      -131.693      -128.879      -128.539      -125.348      
-124.192      -130.042      -144.078      -154.662      -149.884      -147.556      -157.211      
-130.178      -89.5788      -64.3655      -31.7587      -2.21622       35.9949       92.834       
 155.46        250.814       476.906       731.896       833.021      

470 XR2 0 A 2040.0 0 32 2 584 
D5 0.991327 0.127743 -0.03934 252.883 -82.321 R1 90.3556 
-784.396      -786.093      -784.997      -789.89       -800.119      -803.223      -810.662      
-817.62       -807.065      -801.923      -798.097      -810.242      -815.5        -804.836      
-785.455      -777.696      -777.557      -789.071      -788.709      -768.449      -768.245      
-771.043      -773.83       -776.088      -776.939      -778.027      -774.798      -760.255      
-738.49       -736.111      -737.822      -737.873      -731.348      -702.424      -700.794      
-691.828      -674.587      -636.622      -598.038      -560.196      -489.923      -352.032      
-200.96       -143.201      -138.221      -136.833      -134.686      -136.109      -133.469      
-132.802      -132.085      -128.924      -131.365      -136.71       -134.212      -102.113      
-96.7416      -94.8003      -58.2534      -18.9472       14.7223       43.6002       103.632      
 163.474       239.518       452.868       693.209       779.427      

480 XR1 0 A 2040.0 0 32 2 595 
D5 0.99067 0.126335 -0.03843 253.081 -82.4075 R1 89.89 
-724.546      -717.308      -712.339      -713.207      -712.756      -718.137      -711.372      
-710.582      -728.99       -734.593      -738.445      -746.284      -758.035      -755.851      
-755.433      -754.448      -748.991      -729.735      -724.339      -728.742      -721.72       
-719.824      -716.299      -712.968      -709.367      -708.747      -714.348      -717.339      
-705.722      -705.445      -693.682      -672.696      -685.412      -672.855      -652.664      
-638.8        -611.11       -602.174      -561.287      -508.78       -468.428      -329.879      
-184.415      -139.961      -133.122      -133.476      -134.452      -136.957      -141.41       
-140.169      -132.549      -126.197      -134.044      -140.53       -122.968      -122.584      
-97.6382      -75.0785      -51.783       -32.4259       1.19993       36.4655       88.0702      
 153.275       226.088       430.231       646.447       730.325      

490 XR1 0 A 2040.0 0 32 2 607 
D5 0.990905 0.12597 -0.036165 253.981 -82.4657 R1 91.3653 
-689.83       -692.074      -700.142      -711.033      -702.349      -700.851      -706.693      
-702.669      -703.943      -709.225      -711.41       -709.854      -707.422      -713.135      
-708.007      -696.014      -682.943      -675.236      -676.212      -675.984      -673.614      
-671.58       -673.356      -670.869      -672.014      -675.671      -681.793      -682.365      
-677.616      -670.921      -656.877      -650.863      -644.252      -638.569      -619.014      
-610.324      -586.059      -549.677      -524.999      -487.558      -429.076      -305.523      
-169.781      -114.963      -102.64       -102.551      -101.054      -100.808      -99.6829      
-102.758      -109.492      -120.032      -121.119      -111.126      -116.5        -119.991      
-113.828      -82.8645      -61.0656      -32.4935       2.36559       32.7337       78.5394      
 147.407       230.057       409.8         614.838       690.943      

500 XR3 0 A 2040.0 0 32 2 625 
D5 0.990765 0.12635 -0.03503 254.505 -82.4613 R1 90.5913 
-659.466      -655.128      -652.549      -649.65       -632.726      -623.808      -637.744      
-649.032      -661.999      -671.349      -673.838      -656.466      -639.86       -635.264      
-640.276      -636.051      -632.28       -623.32       -635.521      -638.091      -631.664      
-629.947      -628.417      -627.802      -625.104      -625.797      -628.328      -631.652      
-631.191      -630.69       -606.075      -599.298      -611.278      -597.955      -583.621      
-571.263      -551.011      -519.144      -486.886      -448.59       -393.822      -285.261      
-154.54       -101.638      -94.235       -95.2201      -95.1253      -98.9497      -100.924      
-102.14       -103.586      -102.339      -111.948      -121.93       -99.5637      -90.749       
-91.0105      -68.5438      -49.4823      -29.4716      -15.095        28.9871       70.6694      
 137.952       213.529       382.676       573.05        630.319      

510 XR1 0 A 2040.0 0 32 2 631 
D5 0.990995 0.1253 -0.032825 255.32 -82.5534 R1 91.5637 
-616.925      -622.271      -615.504      -602.45       -600.753      -599.656      -598.892      
-616.142      -634.3        -633.274      -625.325      -616.547      -613.658      -622.026      
-635.048      -641.893      -632.485      -622.625      -611.169      -614.668      -611.717      
-609.728      -610.384      -608.8        -607.76       -610.219      -612.15       -604.629      
-590.744      -596.765      -584.111      -581.75       -569.75       -556.58       -544.057      
-534.933      -515.932      -497.078      -454.459      -418.385      -374.165      -267.064      
-143.985      -104.272      -86.8981      -86.2107      -87.8948      -92.5585      -94.1369      
-96.6361      -98.0971      -101.032      -96.5755      -87.4306      -100.901      -90.8006      
-85.1762      -78.8109      -50.3232      -31.8475      -6.65462       39.5084       74.5962      
 132.507       201.76        367.235       541.114       606.095      

520 XR1 0 A 2040.0 0 32 2 643 
D5 0.991335 0.12431 -0.033495 254.92 -82.6004 R1 90.232 
-585.607      -581.329      -585.373      -575.25       -558.302      -566.837      -580.808      
-580.563      -579.194      -573.705      -569.823      -573.428      -572.208      -571.367      
-565.31       -559.019      -567.493      -590.546      -591.988      -572.279      -571.561      
-576.749      -576.072      -577.779      -579.257      -577.893      -572.786      -566.633      
-559.058      -555.341      -542.58       -546.585      -532.033      -522.642      -518.846      
-507.823      -483.597      -465.984      -432.875      -387.086      -350.67       -247.693      
-134.495      -99.38        -99.462       -98.845       -98.5295      -96.1903      -96.5885      
-97.2288      -99.2227      -92.6408      -105.598      -107.802      -106.598      -94.2835      
-81.1804      -70.0901      -57.4106      -33.6172       2.90528       23.4449       71.1854      
 128.443       185.912       344.747       507.566       567.59       

530 XR1 0 A 2040.0 0 32 2 655 
D5 0.991175 0.12235 -0.033425 254.72 -82.7079 R1 91.0335 
-543.054      -543.483      -536.146      -553.584      -549.43       -536.612      -532.539      
-541.899      -554.801      -554.6        -551.345      -546.726      -546.752      -546.407      
-559.881      -552.974      -546.6        -554.556      -559.518      -569.826      -563.482      
-559.719      -558.552      -556.376      -556.785      -551.943      -538.722      -529.107      
-532.595      -529.383      -525.039      -518.153      -503.638      -519.189      -500.589      
-498.04       -471.179      -444.028      -421.656      -385.298      -336.388      -234.179      
-128.718      -85.7496      -67.694       -68.98        -66.7312      -71.2541      -76.0851      
-83.144       -89.2284      -94.8609      -93.4547      -88.4262      -93.0578      -79.3405      
-77.666       -51.7504      -36.6575      -20.7815      -2.0103        16.1532       78.4299      
 116.324       179.875       326.168       486.444       548.246      

540 XR1 0 A 2040.0 0 32 2 667 
D5 0.99138 0.12205 -0.032225 255.21 -82.7435 R1 91.1286 
-513.711      -516.324      -520.939      -517.771      -528.112      -529.82       -514.754      
-501.693      -513.549      -533.665      -529.686      -510.269      -515.475      -520.005      
-518.276      -521.839      -515.92       -509.275      -505.251      -516.259      -525.111      
-522.457      -521.955      -518.588      -512.505      -508.406      -504.202      -502.094      
-508.598      -508.616      -496.288      -499.898      -487.22       -477.528      -474.216      
-466.229      -442.289      -406.108      -392.158      -352.305      -309.87       -218.165      
-122.967      -95.1535      -68.9779      -71.2538      -74.8246      -79.7965      -86.1769      
-89.7524      -89.4692      -93.181       -103.923      -87.5721      -89.9095      -73.7319      
-83.0354      -78.8837      -54.8026      -35.0399      -20.0939       29.236        64.7656      
 119.839       174.847       316.629       464.166       515.551      

550 XR1 0 A 2040.0 0 32 2 679 
D5 0.99136 0.12232 -0.031305 255.645 -82.7417 R1 89.946 
-483.154      -480.675      -493.961      -490.962      -486.307      -494.569      -504.747      
-507.251      -488.82       -493.271      -509.841      -502.397      -490.878      -495.952      
-498.293      -482.394      -474.781      -478.529      -496.793      -500.838      -489.585      
-482.239      -474.718      -467.742      -457.713      -457.586      -473.592      -493.307      
-487.002      -475.184      -465.274      -462.365      -441.771      -447.599      -428.456      
-417.647      -403.34       -386.005      -360.603      -323.906      -285.74       -196.724      
-110.948      -79.1043      -76.2697      -73.6977      -72.9916      -69.7867      -67.6452      
-66.3135      -71.4557      -80.5925      -58.6697      -69.0765      -75.1779      -70.9744      
-66.95        -54.7989      -48.1868      -22.5098       4.10121       30.1656       64.7496      
 112.282       169.176       296.242       431.125       478.652      

560 XR1 0 A 2040.0 0 32 2 691 
D5 0.9912 0.12324 -0.03027 256.2 -82.7041 R1 90.7849 
-458.651      -441.306      -434.095      -440.002      -445.349      -434.634      -445.519      
-445.157      -457.525      -472.366      -466.141      -461.961      -453.7        -458.892      
-444.914      -437.157      -445.387      -466.675      -467.983      -450.239      -437.045      
-432.54       -433.453      -435.674      -438.39       -441.342      -438.411      -434.224      
-434.191      -436.047      -420.269      -415.375      -429.13       -420.363      -414.076      
-394.34       -375.377      -359.551      -329.589      -298.728      -261.328      -185.392      
-107.599      -81.8169      -79.1229      -80.8202      -79.2493      -80.9454      -82.113       
-82.4235      -76.3237      -63.4328      -61.7282      -65.3185      -72.1238      -56.5613      
-66.3693      -63.8086      -53.622       -26.3764      -2.03359       17.8923       49.0089      
 111.663       156.302       281.82        405.764       449.678      

570 XR3 0 A 2040.0 0 32 2 709 
D5 0.991435 0.120205 -0.034215 254.112 -82.8152 R1 87.855 
-409.778      -413.676      -424.161      -436.207      -432.513      -427.74       -413.74       
-413.782      -422.937      -430.818      -428.678      -424.121      -431.066      -430.357      
-423.659      -418.929      -424.579      -432.653      -432.729      -430.541      -427.444      
-428.002      -425.768      -426.825      -429.373      -430.854      -431.981      -424.778      
-414.119      -413.932      -421.533      -406.592      -418.691      -398.989      -384.164      
-372.068      -361.002      -334.661      -311.4        -287.082      -249.552      -172.409      
-95.7471      -74.3985      -66.3329      -67.2082      -67.3309      -67.8028      -70.6083      
-76.0822      -80.258       -76.9141      -59.2         -48.5516      -68.576       -74.4798      
-52.3892      -50.3831      -43.1649      -15.2777       0.530317      23.6233       58.7305      
 98.6607       152.083       266.153       383.224       416.577      

580 XR1 0 A 2040.0 0 32 2 715 
D5 0.991815 0.118895 -0.03399 254.045 -82.8931 R1 87.1422 
-396.929      -385.037      -388.755      -387.768      -401.164      -416.742      -403.5        
-393.258      -387.968      -391.706      -401.383      -408.281      -402.862      -391.694      
-391.376      -398.594      -400.621      -404.18       -401.835      -383.122      -375.089      
-373.084      -370.63       -371.126      -371.839      -374.804      -376.193      -379.461      
-380.907      -362.793      -366.348      -382.548      -382.654      -363.773      -354.576      
-348.013      -324.396      -317.281      -289.287      -260.199      -234.949      -162.136      
-94.489       -70.9584      -54.5979      -54.8255      -56.3419      -56.124       -55.1679      
-53.0387      -51.7077      -54.0308      -60.3585      -74.6301      -57.7614      -60.5121      
-52.0043      -46.6731      -34.6045      -23.1986      -12.4577       16.7117       54.9481      
 87.3517       138.347       242.03        351.68        391.477      

590 XR3 0 A 2040.0 0 32 2 733 
D5 0.991955 0.11772 -0.032415 254.604 -82.9826 R1 86.093 
-380.438      -365.634      -366.869      -368.55       -375.735      -382.998      -381.469      
-387.438      -378.925      -376.891      -387.792      -377.378      -376.781      -380.649      
-370.157      -359.283      -360.98       -368.872      -351.536      -349.11       -364.314      
-370.72       -368.888      -369.421      -367.463      -358.742      -350.735      -347.288      
-347.909      -352.631      -354.963      -353.207      -351.216      -338.943      -338.502      
-314.224      -301.808      -288.262      -274.282      -255.484      -218.4        -151.188      
-83.6287      -59.7692      -54.8371      -54.7042      -50.3443      -47.8354      -42.1601      
-37.1884      -38.0776      -47.3038      -64.5415      -89.5004      -75.0237      -65.7872      
-50.4221      -34.955       -31.3667      -21.3146      -7.90623       11.8156       46.6643      
 88.0082       129.886       226.258       326.087       367.927      

600 XR1 0 A 2040.0 0 32 2 739 
D5 0.99244 0.11462 -0.032545 254.148 -83.1539 R1 85.6185 
-353.837      -363.565      -364.646      -374.443      -354.434      -339.883      -346.422      
-351.054      -356.625      -359.499      -353.473      -339.302      -340.466      -351.152      
-334.444      -320.169      -334.771      -346.901      -331.479      -342.897      -353.16       
-355.944      -359.15       -360.051      -359.842      -360.112      -355.161      -342.366      
-333.634      -334.664      -320.872      -347.305      -346.231      -335.937      -321.781      
-312.198      -301.133      -275.929      -256.702      -232.814      -205.66       -144.468      
-77.2634      -66.3619      -82.5245      -78.2368      -75.3876      -75.4751      -79.3864      
-87.2476      -90.1734      -85.5551      -71.9605      -60.6214      -53.6567      -30.6086      
-49.8631      -22.2223      -30.5066      -19.7699       0.373304      29.133        51.6247      
 74.9956       127.967       209.177       300.744       346.318      

610 XR5 0 A 2040.0 0 32 2 763 
D5 0.99236 0.112493 -0.0321233 254.063 -83.2764 R1 85.3465 
-330.3        -322.764      -327.235      -329.625      -331.016      -318.147      -301.103      
-306.444      -319.011      -320.793      -327.538      -334.505      -339.09       -328.336      
-318.046      -320.493      -317.827      -322.133      -322.677      -323.813      -326.743      
-325.185      -324.221      -321.724      -323.19       -324.492      -320.284      -316.27       
-320.273      -321.881      -306.984      -290.734      -296.622      -305.521      -282.786      
-287.169      -269.138      -255.486      -239.507      -215.871      -185.148      -130.128      
-77.2847      -56.7351      -68.21        -61.59        -59.407       -59.4676      -60.4291      
-64.3794      -70.9559      -76.7531      -72.2423      -73.8877      -72.4378      -66.2407      
-58.6605      -33.3799      -26.1292      -20.345        0.329536      23.7146       43.177       
 71.1733       114.07        194.318       286.423       324.695      

620 XR3 0 A 2040.0 0 32 2 775 
D5 0.99272 0.11142 -0.03193 254.01 -83.3405 R1 86.3448 
-308.766      -316.865      -325.374      -309.367      -295.081      -290.094      -300.748      
-306.805      -313.8        -323.166      -322.603      -317.582      -296.295      -292.977      
-303.058      -311.705      -305.642      -289.026      -292.398      -309.307      -318.402      
-322.302      -320.684      -319.26       -316.645      -318.041      -315.881      -311.955      
-315.095      -309.377      -304.339      -293.557      -286.955      -293.363      -295.794      
-288.329      -263.28       -252.702      -229.945      -202.568      -180.457      -130.006      
-75.443       -56.7592      -56.9082      -48.2914      -46.7112      -42.4152      -38.3508      
-32.8659      -39.5342      -48.05        -51.8017      -51.7293      -62.4219      -54.0587      
-51.3013      -51.8524      -35.0528      -30.9434      -11.7248       0.124514      27.648       
 61.9654       101.183       192.581       277.881       307.703      

630 XR1 0 A 2040.0 0 32 2 781 
D5 0.99285 0.10872 -0.03101 254.081 -83.5037 R1 86.8849 
-296.151      -292.243      -291.46       -292.43       -293.121      -296.28       -297.872      
-293.748      -288.967      -287.803      -286.385      -289.01       -305.149      -313.71       
-309.13       -306.427      -314.161      -321.277      -315.12       -309.224      -306.642      
-306.641      -303.968      -302.398      -304.536      -310.536      -310.311      -293.379      
-279.058      -278.114      -290.41       -280.495      -276.217      -285.113      -296.349      
-285.004      -261.723      -255.561      -229.212      -199.195      -177.995      -129.857      
-74.6325      -50.2373      -42.0889      -42.0608      -40.7901      -44.5666      -50.0221      
-57.5944      -61.6189      -55.2857      -49.9567      -58.5459      -72.793       -43.7076      
-57.9281      -33.0915      -38.681       -30.3464      -27.9144      -6.84267       19.0836      
 49.2007       87.2592       171.268       262.405       288.204      

640 XR5 0 A 2040.0 0 32 2 805 
D5 0.992903 0.108837 -0.02996 254.609 -83.5138 R1 85.7129 
-272.886      -264.126      -265.356      -268.432      -263          -264.77       -270.89       
-279.751      -288.59       -283.054      -282.296      -278.821      -262.138      -265.791      
-273.187      -266.908      -267.843      -272.249      -278.805      -284.416      -280.303      
-277.634      -276.612      -276.085      -275.346      -278.647      -282.815      -281.309      
-286.096      -284.812      -270.915      -276.733      -264.137      -264.496      -264.553      
-254.833      -238.018      -226.399      -214.021      -192.967      -169.089      -118.829      
-66.0915      -51.9053      -60.7117      -65.0207      -65.1872      -65.7352      -63.3764      
-58.85        -51.5046      -42.3164      -31.0386      -34.8455      -69.2156      -51.1604      
-68.1558      -56.2956      -48.1471      -30.2267      -27.3956      -12.6635       9.94089      
 52.1162       76.0447       158.35        236.857       265.376      

650 XR3 0 A 2040.0 0 32 2 817 
D5 0.99281 0.108355 -0.03232 253.391 -83.5025 R1 82.9568 
-247.689      -252.182      -259.46       -257.933      -249.922      -249.937      -253.819      
-254.788      -253.198      -247.041      -254.211      -256.518      -263.252      -265.807      
-266.669      -266.918      -261.521      -259.917      -255.191      -252.947      -249.071      
-242.95       -241.523      -236.373      -234.982      -235.685      -239.412      -243.912      
-258.946      -250.157      -260.788      -263.15       -256.213      -238.885      -237.788      
-224.943      -218.662      -210.729      -200.792      -180.591      -158.25       -112.513      
-67.4311      -54.493       -11.9506      -7.41451      -6.99764      -11.1848      -19.9125      
-24.7979      -34.2365      -40.0454      -43.2687      -35.88        -26.9414      -35.6697      
-55.7979      -49.1341      -22.8596      -25.3135      -21.061       -7.86209       5.43349      
 40.2712       74.5138       139.773       212.644       239.827      

660 XR1 0 A 2040.0 0 32 2 823 
D5 0.992915 0.10743 -0.031885 253.469 -83.5607 R1 86.3021 
-227.028      -230.057      -240.161      -245.6        -243.878      -232.729      -226.522      
-232.02       -235.031      -241.622      -254.832      -253.908      -255.672      -261.068      
-262.169      -265.749      -266.892      -269.791      -265.29       -249.816      -252.483      
-257.862      -255.243      -258.416      -257.864      -257.762      -257.995      -261.298      
-255.375      -253.919      -258.188      -247.449      -258.477      -255.337      -235.022      
-227.729      -223.408      -204.86       -193.621      -163.373      -145.92       -101.018      
-61.8543      -41.1146      -40.9819      -38.311       -37.6461      -35.4338      -38.2972      
-41.9578      -47.2917      -47.288       -45.2198      -40.3523      -40.568       -34.5397      
-36.2566      -43.3324      -35.1566      -32.9744      -11.714       -4.52452       20.2133      
 44.055        81.3622       148.525       220.906       242.015      

665 XR1 0 A 2040.0 0 32 2 835 
D5 0.99287 0.107595 -0.030475 254.186 -83.5738 R1 87.1244 
-235.094      -245.531      -248.384      -260.673      -251.042      -231.063      -232.944      
-238.587      -228.19       -228.402      -234.903      -237.926      -249.092      -251.447      
-251.719      -248.362      -256.336      -259.192      -253.918      -245.89       -238.926      
-238.22       -237.811      -237.5        -235.639      -232.425      -229.902      -220.75       
-217.604      -214.551      -253.44       -258.204      -253.237      -244.601      -227.294      
-208.689      -200.096      -202.265      -183.427      -182.485      -138.2        -99.0679      
-54.2977      -46.5224      -35.0234      -31.1132      -30.7218      -33.3818      -40.7273      
-51.0227      -51.2341      -38.5281      -43.7008      -32.0465      -36.7708      -48.2645      
-40.6206      -34.1817      -32.618       -32.4775      -24.8309       4.33838       10.3217      
 42.5816       64.9664       145.048       215.263       230.761      

50 YR1 0 A 2040.0 0 32 2 3 
D5 0.982673 0.17529 -0.0556233 252.395 -79.4 R1 63.6387 
 1051.44       1069.19       1067.52       1051.53       1055.78       1056.55       1044.48      
 1046.08       1005.2        842.011       575.337       269.952      -51.0053      -347.904      
-625.776      -911.295      -1173.39      -1402.83      -1622.65      -1843.52      -2002.12      
-2064.12      -2092.98      -2141.72      -2206.71      -2289.06      -2391.2       -2486.34      
-2501.82      -2415.9       -2231.04      -1996.37      -1743.72      -1487.71      -1251.32      
-1075.1       -915.666      -780.469      -670.651      -577.949      -495.01       -327.117      
-170.302      -129.172      -120.976      -118.844      -118.605      -115.879      -116.233      
-115.75       -128.669      -191.996      -444.391      -995.568      -1650.11      -2294.71      
-2839.83      -3072.06      -2963.9       -2671.79      -2347.5       -2083.03      -1891.34      
-1746.3       -1614.08      -1371.56      -1139.82      -1059.68      

60 YR1 0 A 2040.0 0 32 2 15 
D5 0.98249 0.175225 -0.052295 253.382 -79.4567 R1 63.1025 
 1035          1041.39       1048.34       1040.28       1029.26       1025.66       1036.92      
 1034.79       979.22        823.563       566.037       255.833      -63.0614      -372.225      
-662.703      -945.011      -1220.47      -1478.11      -1728.13      -1963.13      -2121.61      
-2183.31      -2215.39      -2265.98      -2339.18      -2438.25      -2559.52      -2665.25      
-2695.29      -2602.32      -2422.38      -2182.53      -1923.28      -1656.7       -1393.62      
-1202.32      -1024.89      -876.166      -768.705      -670.024      -568.409      -371.34       
-193.03       -132.644      -142.05       -137.723      -135.989      -133.859      -131.626      
-132.885      -138.951      -191.87       -454.508      -1020.92      -1685.49      -2370.01      
-2945.22      -3214.77      -3111.66      -2807.67      -2458.76      -2187.75      -1975.74      
-1804.72      -1662.87      -1383.1       -1127.94      -1048.03      

70 YR1 0 A 2040.0 0 32 2 27 
D5 0.97468 0.17226 -0.05803 251.382 -79.436 R1 60.4889 
 932.792       927.587       929.636       942.871       942.492       941.087       938.795      
 929.481       885.834       739.242       482.116       182.625      -145.781      -452.815      
-757.877      -1056.65      -1335.8       -1599.76      -1841.64      -2070.55      -2239.9       
-2304.24      -2334.93      -2387.4       -2456.44      -2542.48      -2651.3       -2765.07      
-2831.72      -2769.05      -2606.1       -2361.95      -2062.63      -1784.69      -1558.45      
-1340.81      -1149.62      -1001.33      -867.115      -749.099      -641.894      -427.713      
-216.845      -153.856      -144.559      -145.864      -146.748      -150.702      -154.608      
-160.03       -161.226      -204.464      -444.107      -982.095      -1650.85      -2356.12      
-2954.21      -3264.62      -3177.49      -2869.13      -2503.28      -2214.97      -2000.69      
-1809.93      -1649.72      -1339.97      -1045.97      -944.28       

80 YR1 0 A 2040.0 0 32 2 39 
D5 0.97674 0.1782 -0.040905 257.071 -79.3975 R1 62.015 
 932.941       931.427       928.296       932.938       942.575       945.829       936.149      
 915.293       879.983       754.149       507.609       186.208      -162.607      -503.208      
-818.382      -1124.51      -1416.21      -1685.96      -1945.28      -2192.15      -2368.72      
-2435.67      -2471.93      -2523.93      -2600.09      -2692.97      -2817.47      -2959.79      
-3041.75      -2978.64      -2808.73      -2573.86      -2284.83      -1998.14      -1738.4       
-1499.89      -1293.02      -1138.37      -997.287      -865.068      -745.845      -491.412      
-261.592      -193.509      -196.09       -195.496      -193.777      -192.828      -189.056      
-186.897      -192.721      -242.272      -463.603      -1002.73      -1720.32      -2465.88      
-3123.25      -3462.66      -3387.24      -3073.76      -2707.05      -2398.28      -2147.78      
-1951.27      -1773.59      -1405.26      -1063.88      -947.85       

90 YR1 0 A 2040.0 0 32 2 51 
D5 0.97682 0.175325 -0.0498 254.143 -79.4307 R1 59.0049 
 874.945       869.939       874.202       878.458       871.324       872.708       879.382      
 873.024       840.245       711.296       487.281       188.713      -137.098      -453.403      
-769.385      -1080.11      -1377.12      -1658.74      -1929.03      -2183.83      -2365.51      
-2437.49      -2472.17      -2531.01      -2607.76      -2703.95      -2821.83      -2954.88      
-3050.14      -3018.55      -2886.8       -2652.18      -2383.73      -2112.72      -1845.92      
-1599.01      -1415.93      -1243.53      -1085.66      -958.726      -825.466      -546.111      
-295.815      -219.962      -209.855      -206.077      -202.611      -199.636      -196.718      
-193.935      -206.871      -257.353      -457.562      -959.441      -1658.12      -2400.02      
-3081.35      -3444.06      -3437.57      -3140.14      -2761.3       -2449.48      -2203.07      
-1982.14      -1789.12      -1384.67      -1001.54      -870.479      

100 YR1 0 A 2040.0 0 32 2 63 
D5 0.982795 0.176205 -0.04612 255.332 -79.5005 R1 55.247 
 831.245       821.447       821.788       819.055       810.708       802.925       813.776      
 829.694       795.938       656.858       417.37        118.956      -215.313      -565.794      
-888.869      -1202.79      -1522.37      -1815.01      -2089.96      -2356.47      -2554.75      
-2630.08      -2668.29      -2728.91      -2814.77      -2915.76      -3041.97      -3187.03      
-3300.42      -3304.1       -3168.05      -2940.7       -2669.3       -2380.67      -2114.72      
-1858.83      -1645.41      -1453.53      -1291.88      -1127.8       -971.679      -645.897      
-340.056      -254.855      -257.166      -259.948      -260.401      -260.034      -257.947      
-252.126      -250.237      -280.911      -487.546      -999.323      -1729.02      -2518.1       
-3245.69      -3673.75      -3669.09      -3382.08      -3005.1       -2669.26      -2381.39      
-2130.53      -1913.38      -1446.41      -997.136      -845.721      

110 YR3 0 A 2040.0 0 32 2 81 
D5 0.98299 0.17486 -0.05038 253.928 -79.512 R1 53.5823 
 873.365       873.154       868.727       873.14        876.883       870.679       865.255      
 862.14        838.965       732.272       504.284       202.778      -113.282      -445.504      
-786.04       -1108.88      -1426.58      -1733.17      -2027.89      -2299.39      -2494.06      
-2571.27      -2609.21      -2670.27      -2757.57      -2862.76      -2995         -3154.77      
-3292.27      -3326.34      -3235.15      -3031.64      -2794.65      -2519.87      -2257.34      
-2001.89      -1791.05      -1595.73      -1417.53      -1250.82      -1083.86      -722.955      
-384.089      -276.566      -273.496      -273.417      -274.738      -279.155      -279.97       
-279.569      -279.071      -314.399      -506.256      -980.411      -1698.89      -2482.03      
-3241.06      -3730.57      -3809.44      -3572.66      -3209.66      -2870.19      -2578.94      
-2320.64      -2072.78      -1558.08      -1054.18      -880.404      

120 YR1 0 A 2040.0 0 32 2 87 
D5 0.982325 0.17791 -0.04968 254.398 -79.3504 R1 48.2649 
 831.314       835.139       831.944       820.576       823.079       822.203       821.147      
 823.311       800.56        687.999       453.886       142.932      -196.173      -537.51       
-886.736      -1223.74      -1542.43      -1855.79      -2163.99      -2468         -2681.8       
-2767.11      -2808.67      -2877.57      -2972.18      -3095.28      -3248.95      -3422.77      
-3566.89      -3604.52      -3538.08      -3374.61      -3126.97      -2865.05      -2590.01      
-2337.63      -2100.53      -1895.57      -1683.11      -1484.79      -1279.24      -855.251      
-457.797      -328.352      -350.387      -350.797      -350.226      -349.765      -351.005      
-349.936      -347.075      -375.159      -562.863      -1063.09      -1789.62      -2614.67      
-3449.38      -3998.86      -4119.91      -3893.34      -3534.7       -3159.19      -2850.23      
-2547.22      -2255.81      -1648.72      -1052.2       -847.619      

130 YR1 0 A 2040.0 0 32 2 99 
D5 0.983075 0.17328 -0.057325 251.695 -79.4823 R1 35.1056 
 668.715       668.047       658.844       663.847       658.891       645.771       646.729      
 646.992       616.561       486.77        238.761      -99.4027      -462.726      -823.215      
-1189.76      -1543.86      -1897.23      -2240.77      -2565.37      -2878.06      -3103.59      
-3188.42      -3234.41      -3307.97      -3409.32      -3538.33      -3700.8       -3886.65      
-4043.03      -4080.61      -4014.69      -3854.51      -3612.3       -3338.75      -3051.77      
-2784.02      -2502.71      -2254.41      -2007.79      -1782.65      -1540.84      -1039.16      
-564.664      -415.991      -394.563      -394.744      -397.243      -397.638      -400.042      
-402.969      -417.353      -471.623      -683.844      -1206.47      -1959.81      -2830.61      
-3693.58      -4291.88      -4452.13      -4256.04      -3866.91      -3443.04      -3082.04      
-2718.39      -2375.02      -1640.95      -920.165      -677.127      

140 YR1 0 A 2040.0 0 32 2 111 
D5 0.98318 0.174205 -0.04909 254.263 -79.5694 R1 25.592 
 725.039       734.157       725.198       720.796       704.606       703.24        707.389      
 699.242       663.145       521.477       235.536      -115.054      -487.966      -891.381      
-1288.92      -1668.04      -2043.56      -2405.56      -2757.61      -3096.46      -3355.61      
-3458.68      -3507.96      -3592.31      -3702.31      -3837.75      -4017.07      -4230.57      
-4391.26      -4444.36      -4395.4       -4255.53      -4037.56      -3764.93      -3483.97      
-3165.05      -2879.19      -2596.96      -2333.07      -2064.46      -1782.68      -1209.77      
-655.95       -479.53       -481.075      -478.255      -478.435      -475.423      -470.755      
-466.855      -473.152      -520.003      -758.84       -1351.67      -2170.4       -3101.96      
-4049.27      -4715.55      -4932.29      -4743.16      -4344.89      -3912.17      -3499.75      
-3093.62      -2695.24      -1853.35      -1024.38      -737.596      

150 YR3 0 A 2040.0 0 32 2 129 
D5 0.98314 0.17493 -0.04669 255.055 -79.5654 R1 26.6155 
 736.866       741.462       754.664       757.961       745.186       742.968       729.905      
 721.753       687.448       549.894       282.991      -59.286       -423.71       -791.325      
-1177.63      -1557.16      -1935.32      -2317.68      -2693.48      -3050.66      -3312.15      
-3412.06      -3466.56      -3549.05      -3659.31      -3800.17      -3985.04      -4214.68      
-4421.64      -4529.53      -4515.16      -4402.82      -4231.35      -3980.54      -3709.49      
-3428.46      -3123.03      -2851.45      -2565.62      -2269.16      -1979.42      -1340.1       
-721.893      -515.393      -508.456      -504.605      -503.794      -501.997      -493.652      
-486.551      -489.001      -528.387      -752.815      -1306.18      -2110.79      -3072.37      
-4074.99      -4811.69      -5118.02      -5005.75      -4646.17      -4227.91      -3790.04      
-3362.95      -2928.61      -2008.52      -1089.93      -782.336      

160 YR1 0 A 2040.0 0 32 2 135 
D5 0.982725 0.176835 -0.04829 254.726 -79.4339 R1 11.5637 
 870.809       873.61        878.904       859.169       850.434       863.395       864.321      
 864.387       836.697       692.506       407.696       51.8232      -349.099      -754.941      
-1176.49      -1610.51      -2027.45      -2423.53      -2813.19      -3208.38      -3501.9       
-3615.15      -3673.28      -3763.23      -3888.3       -4042.07      -4243.48      -4495.93      
-4733.55      -4824.81      -4830         -4760.85      -4584.35      -4336.81      -4050.94      
-3746.02      -3427.47      -3107.08      -2800.71      -2494.16      -2171.49      -1475.04      
-802.51       -583.55       -575.659      -575.08       -578.26       -577.686      -578.254      
-577.277      -579.646      -626.863      -854.529      -1438.37      -2314.57      -3319.29      
-4405.7       -5226.87      -5609.91      -5526.44      -5166.89      -4699.81      -4217.53      
-3748.75      -3279.16      -2266.61      -1254.71      -896.892      

170 YR3 0 A 2040.0 0 32 2 153 
D5 0.982495 0.17713 -0.0445 255.898 -79.4696 R1 8.30351 
 1132.74       1113.76       1094.9        1086.66       1094.58       1099.78       1092.46      
 1088.49       1056.03       911.6         635.243       302.361      -93.3134      -533.648      
-982.903      -1419.92      -1849.38      -2268.08      -2686.07      -3107.41      -3410.29      
-3521.48      -3575.75      -3667.86      -3796.39      -3964.27      -4193.05      -4478.83      
-4743.65      -4903.13      -4969.41      -4911.89      -4781.34      -4566.34      -4293.71      
-3977.06      -3665.87      -3342.11      -3018.45      -2694.68      -2357.14      -1614.43      
-886.291      -642.584      -624.255      -622.139      -622.928      -620.194      -615.249      
-608.523      -606.559      -649.783      -885.482      -1484.5       -2356.56      -3430.87      
-4580.07      -5521.85      -5988.67      -5963.18      -5647.29      -5195.29      -4698.33      
-4225.44      -3730         -2634.97      -1536.05      -1155.97      

180 YR1 0 A 2040.0 0 32 2 159 
D5 0.97717 0.155065 -0.096715 238.048 -79.4065 R1 356.967 
 1410.56       1413.42       1415.4        1423.61       1415.37       1405.01       1400.76      
 1397.19       1387          1265.77       1000.33       649.096       246.576      -180.657      
-617.336      -1061.45      -1498.26      -1931.29      -2362.14      -2795.34      -3120.01      
-3247.76      -3314.37      -3424.86      -3571.69      -3756.4       -3994.45      -4297.52      
-4606.5       -4829.68      -4942.03      -4958.37      -4882.9       -4739.09      -4529.35      
-4226.26      -3931.41      -3616.56      -3280.54      -2941.74      -2583.89      -1767.4       
-961.242      -711.508      -695.4        -693.663      -692.814      -692.443      -691.283      
-692.634      -694.544      -725.459      -919.507      -1470.45      -2356.3       -3447.55      
-4679.9       -5731.23      -6333.07      -6456.53      -6206.28      -5795.68      -5315.12      
-4811.22      -4282.5       -3094.43      -1890.24      -1462.91      

190 YR1 0 A 2040.0 0 32 2 171 
D5 0.976955 0.176355 -0.04351 256.141 -79.4671 R1 29.5511 
 1707.67       1701.53       1690.99       1693.72       1702.06       1709.28       1710.85      
 1702.12       1683.76       1582.85       1370.16       1084.66       749.353       361.706      
-33.9117      -428.12       -841.824      -1277.96      -1703.73      -2129.95      -2459.34      
-2592.89      -2654.38      -2764.09      -2913.01      -3097.84      -3336.82      -3644.68      
-3979.37      -4273.59      -4495.47      -4635.82      -4665.93      -4626.37      -4477.54      
-4282.9       -4048.28      -3778.67      -3472.75      -3132.07      -2753.25      -1897.8       
-1023.18      -738.328      -719.133      -720.156      -722.774      -725.524      -731.309      
-737.184      -741.498      -762.509      -901.318      -1335.3       -2100.83      -3126.01      
-4347.39      -5505.97      -6282.3       -6580.27      -6496.16      -6188.59      -5759.43      
-5284.08      -4735.94      -3486.16      -2196.8       -1746.4       

200 YR3 0 A 2040.0 0 32 2 189 
D5 0.982837 0.17551 -0.05014 254.056 -79.4789 R1 46.271 
 1572.8        1571.61       1564.42       1550.87       1538.97       1542.29       1543.63      
 1530.13       1511.81       1470.62       1360.5        1179.86       939.471       665.946      
 377.479       58.3193      -266.627      -607.213      -944.713      -1286.25      -1546.64      
-1653.18      -1704.44      -1791.34      -1911.9       -2064.17      -2267.54      -2530.7       
-2841.77      -3185.51      -3476.38      -3706.92      -3853.99      -3913.66      -3909.15      
-3825.41      -3688.92      -3507.25      -3261.26      -2983.88      -2647.28      -1829.53      
-971.862      -697.358      -677.657      -676.006      -677.412      -676.58       -674.731      
-673.235      -674.182      -686.24       -758.736      -1017.46      -1550.37      -2332.97      
-3359.74      -4407.45      -5228.32      -5688.53      -5769.71      -5613.43      -5307.16      
-4905.96      -4432.52      -3252.75      -2017.44      -1595.08      

210 YR1 0 A 2040.0 0 32 2 201 
D5 0.983013 0.1731 0.05173 286.639 -79.5861 R1 84.7702 
 1518.23       1519.73       1521.85       1517          1506.8        1495.13       1498.92      
 1494.26       1485.26       1461.63       1374.35       1233.89       1055.09       826.865      
 584.862       318.242       32.7429      -258.107      -559.712      -871.573      -1102.38      
-1200.26      -1246.34      -1324.14      -1436.83      -1579.07      -1765.02      -2006.79      
-2317.5       -2658.51      -2961.96      -3260.53      -3459.81      -3588.92      -3647.28      
-3632.77      -3544.06      -3406.77      -3205.43      -2942.09      -2637.21      -1833.17      
-975.657      -692.589      -692.652      -688.379      -684.927      -681.827      -675.542      
-669.531      -665.552      -674.589      -721.716      -904.203      -1333.02      -1999.81      
-2915.45      -3919.91      -4781.14      -5314.39      -5488.27      -5411.5       -5175.04      
-4824.31      -4373.24      -3214.63      -1976.28      -1549.15      

220 YR1 0 A 2040.0 0 32 2 213 
D5 0.98271 0.176404 -0.050224 254.108 -79.4279 R1 58.1764 
 1322.53       1318.02       1310.13       1308.5        1299.86       1292.9        1298.05      
 1295.84       1278.15       1258.78       1217.42       1129.17       982.598       800.767      
 607.671       384.77        140.753      -108.811      -373.574      -650.956      -860.83       
-947.273      -988.699      -1055.47      -1152         -1277.49      -1452.79      -1679.46      
-1963.23      -2286.08      -2606.49      -2896.75      -3140.54      -3312.51      -3413         
-3445.21      -3410.96      -3306.2       -3140.5       -2901.46      -2611.16      -1832.24      
-975.797      -681.644      -674.39       -675.467      -676.902      -675.762      -673.304      
-669.089      -665.054      -666.217      -699.077      -831.966      -1150.37      -1708.3       
-2512.99      -3441.71      -4267.32      -4824.99      -5072.8       -5064.37      -4876.65      
-4556.62      -4138.69      -3013.21      -1787.21      -1359.34      

230 YR1 0 A 2040.0 0 32 2 231 
D5 0.982695 0.177345 -0.047935 254.875 -79.4111 R1 65.0636 
 1007.88       1015.37       1014.57       1020.29       1020.55       1025.99       1028.64      
 1018.26       1002.53       997.767       971.266       918.428       841.021       729.739      
 579.054       417.462       243.959       52.8066      -138.587      -348.561      -513.702      
-576.753      -607.799      -666.595      -746.061      -848.626      -987.938      -1174.36      
-1403.89      -1688.48      -2005.5       -2320.18      -2595.72      -2813.07      -2951.06      
-3035.64      -3064.19      -3009.08      -2896.41      -2716.93      -2468.27      -1753.51      
-949.459      -680.142      -657.003      -657.565      -656.09       -657.451      -656.814      
-658.513      -661.518      -657.227      -647.564      -692.017      -896.561      -1288.87      
-1917.12      -2715.75      -3474.21      -4045.03      -4340.52      -4398.42      -4291.98      
-4026.42      -3672.61      -2643.21      -1478.27      -1050.42      

240 YR1 0 A 2040.0 0 32 2 243 
D5 0.982835 0.179955 -0.031055 260.209 -79.4742 R1 74.8254 
 786.572       784.809       775.04        766.826       758.531       747.725       746.177      
 746.35        762.362       776.377       778.854       768.941       725.673       653.875      
 570.813       484.86        379.885       242.952       95.5222      -61.0106      -182.329      
-232.749      -257.919      -303.263      -367.005      -453.385      -561.221      -691.249      
-876.206      -1142.86      -1457.12      -1751.95      -2052.42      -2288.77      -2485.83      
-2607.13      -2679.95      -2679.29      -2609.89      -2474.5       -2268.42      -1648.56      
-889.044      -605.994      -601.228      -601.255      -601.108      -599.44       -597.992      
-593.259      -582.172      -576.566      -578.395      -561.982      -649.005      -904.204      
-1352.92      -2000.28      -2702.51      -3261.83      -3580.62      -3704.04      -3684.25      
-3480.25      -3178.41      -2265.09      -1186.89      -794.758      

250 YR3 0 A 2040.0 0 32 2 261 
D5 0.982405 0.176605 -0.04654 255.237 -79.4687 R1 68.6483 
 678.929       672.406       673.85        667.076       656.296       659.831       669.645      
 665.315       649.471       644.345       652.628       650.081       640.254       601.27       
 528.268       444.796       340.374       222.677       104.864      -32.2328      -149.241      
-193.43       -213.891      -247.081      -289.192      -348.108      -435.687      -573.949      
-761.168      -1031.19      -1328.63      -1619.2       -1900.08      -2155.66      -2360.61      
-2506.47      -2587.88      -2627.07      -2592.64      -2499.47      -2317.01      -1712.33      
-942.885      -650.903      -642.281      -643.522      -641.556      -642.165      -639.405      
-638.011      -635.764      -629.466      -623.387      -605.073      -655.526      -867.357      
-1276.18      -1851.78      -2515.97      -3059.66      -3400.28      -3567.23      -3551.5       
-3391.23      -3120.44      -2219.12      -1110.39      -709.007      

260 YR3 0 A 2040.0 0 32 2 273 
D5 0.982873 0.174717 -0.0458767 255.288 -79.586 R1 66.2816 
 639.239       643.522       641.843       632.153       614.155       595.998       599.997      
 609.098       598.275       604.327       601.806       572.848       538.444       500.518      
 435.861       347.293       249.644       155.407       49.6695      -66.9304      -167.05       
-206.851      -222.872      -253.201      -294.028      -346.522      -425.528      -552.068      
-716.173      -903.32       -1129.84      -1399.02      -1636.66      -1881.28      -2085.02      
-2243.92      -2372.52      -2435.99      -2442         -2383.4       -2247.08      -1714.64      
-956.488      -670.234      -659.484      -656.541      -656.559      -658.089      -656.787      
-656.718      -654.514      -652.23       -644.6        -645.221      -713.8        -906.617      
-1251.59      -1744.31      -2300.87      -2770.38      -3108.13      -3285.63      -3306.14      
-3209.62      -2989.27      -2164.73      -1077.15      -667.961      

265 YR3 0 A 2040.0 0 32 2 297 
D5 0.983505 0.17279 -0.043865 255.756 -79.7261 R1 64.3061 
 628.802       643.048       638.605       630.799       623.331       615.576       606.939      
 595.148       590.858       593.438       590.681       580.166       557.945       522.218      
 453.948       374.197       283.115       189.165       95.8314      -10.4984      -103.336      
-139.306      -160.221      -193.202      -240.733      -302.373      -384.403      -479.869      
-610.683      -812.804      -1028.26      -1282.71      -1509.81      -1732.26      -1921.29      
-2066.26      -2189.65      -2280.21      -2314.06      -2286.79      -2194.43      -1704.31      
-968.63       -676.409      -669.002      -665.073      -665.027      -663.433      -657.187      
-654.606      -649.813      -649.286      -655.043      -657.039      -718.698      -877.881      
-1204.5       -1664.21      -2186.16      -2633.63      -2939.4       -3113.06      -3165.73      
-3088.78      -2904.57      -2135.28      -1073.06      -664.91       

270 YR1 0 A 2040.0 0 32 2 279 
D5 0.98412 0.16834 -0.045235 254.959 -79.9557 R1 70.9539 
 390.234       385.632       384.316       378.914       379.215       380.85        385.812      
 376.981       375.426       377.064       382.223       389.767       422.841       472.555      
 520.79        557.994       586.186       607.079       635.914       657.837       663.312      
 661.062       665.435       664.421       661.585       654.384       643.455       638.991      
 624.708       575.342       461.337       302.531       34.289       -252.376      -536.024      
-803.349      -1039.52      -1249.29      -1410.49      -1509.09      -1539.28      -1314.07      
-793.102      -550.031      -531.823      -533.709      -535.712      -538.594      -541.422      
-545.107      -548.77       -549.287      -546.363      -514.208      -418.367      -293.913      
-208.848      -272.316      -524.963      -939.029      -1335.59      -1658.17      -1865.48      
-1964.57      -1957.46      -1525.83      -745.753      -422.575      

275 YR2 0 A 2040.0 0 32 2 304 
D5 0.9844 0.166617 -0.0454233 254.75 -80.0496 R1 75.8852 
 413.925       409.653       403.465       392.644       396.09        399.662       387.695      
 377.28        382.519       382.754       391.475       400.339       424.912       487.083      
 563.788       659.88        768.82        884.225       993.303       1099.18       1181.52      
 1210.64       1226.76       1250.88       1280.66       1319.82       1374.52       1441.64      
 1508.62       1586.25       1628.44       1556.79       1315.06       941.613       526.866      
 129.419      -213.164      -487.792      -719.562      -901.015      -1033.82      -1023.93      
-686.766      -513.956      -494.821      -487.759      -484.338      -482.347      -482.589      
-485.201      -493.486      -498.58       -496.269      -471.96       -377.47       -140.154      
 249.465       588.185       597.418       199.69       -342.064      -813.464      -1127.03      
-1328.27      -1438.18      -1261.77      -706.727      -439.131      

280 YR2 0 A 2040.0 0 32 2 316 
D5 0.98091 0.165747 -0.0413733 255.984 -80.1205 R1 86.7466 
 430.692       435.97        440.821       438.407       435.104       433.784       423.75       
 427.748       435.359       423.935       425.678       432.63        449.69        488.228      
 538.579       603.244       675.595       768.66        865.088       950.4         1025.28      
 1058.9        1074.7        1104.73       1143.56       1192.65       1255.71       1331.72      
 1443.05       1564.95       1713.93       1806.63       1821.24       1688.55       1457.93      
 1170.64       870.323       561.286       259.438      -37.6443      -280.439      -554.237      
-485.961      -390.602      -391.683      -390.061      -388.85       -386.186      -386.817      
-392.217      -399.628      -391.004      -379.454      -384.092      -312.215      -154.747      
 173.824       584.441       880.523       874.621       626.918       263.522      -93.3917      
-410.774      -669.751      -853.058      -624.349      -444.111      

285 YR1 0 A 2040.0 0 32 2 327 
D5 0.9848 0.16439 -0.043635 255.134 -80.2012 R1 85.1279 
 415.156       407.617       400.188       409.168       428.12        426.067       404.174      
 399.855       398.959       403.093       411.252       415.529       420.408       444.395      
 489.066       547.915       608.156       677.641       751.829       833.233       891.113      
 912.783       925.269       944.731       974.975       1015.59       1072.13       1151.12      
 1245.77       1376.75       1514.53       1649.17       1725.51       1706.48       1590.77      
 1416.66       1173.78       889.121       569.803       241.755      -65.966       -442.507      
-462.526      -388.384      -361.845      -359.177      -358.285      -361.824      -363.638      
-369.578      -375.81       -376.912      -379.154      -370.524      -316.486      -190.833      
 64.2088       431.111       758.506       893.777       796.213       553.056       234.13       
-108.702      -425.304      -735.144      -592.394      -429.388      

290 YR1 0 A 2040.0 0 32 2 339 
D5 0.97964 0.162965 -0.04435 254.775 -80.218 R1 77.0352 
 728.469       727.129       722.975       709.855       707.56        707.5         706.622      
 704.404       713.889       702.363       684.154       683.785       697.942       705.616      
 720.831       751.489       784.195       813.455       848.818       891.457       917.471      
 928.85        936.72        946.148       955.522       971.897       999.357       1042.98      
 1090.46       1135.15       1210.77       1264.29       1285.05       1250.31       1154.96      
 1020.95       832.54        618.52        357.924       67.7579      -204.783      -567.654      
-551.143      -457.552      -459.972      -451.906      -449.429      -446.992      -448.419      
-452.019      -452.315      -451.022      -444.278      -449.313      -429.95       -365.742      
-256.553      -75.5473       93.2947       129.313       33.3967      -150.095      -378.895      
-639.521      -898.864      -1145.85      -932.87       -749.222      

300 YR3 0 A 2040.0 0 32 2 357 
D5 0.982773 0.151743 -0.0483967 252.31 -80.7942 R1 76.1748 
 906.832       905.8         900.837       889.667       894.758       907.098       900.22       
 886.703       897.729       903.602       909.302       915.723       915.633       931.788      
 948.878       966.69        994.86        1026.59       1069.02       1114.52       1144.01      
 1155.23       1162.46       1173.41       1191.27       1212.72       1241.51       1277.58      
 1324.43       1379.32       1448.68       1488.72       1524.54       1499.67       1451.35      
 1351.33       1212.13       1029.29       825.308       596.222       361.495      -66.1939      
-269.594      -275.023      -259.205      -259.973      -260.001      -262.021      -267.053      
-270.276      -273.058      -266.969      -262.061      -272.561      -246.525      -179.961      
-48.5225       134.211       274.462       332.097       282.005       122.718      -80.5492      
-308.837      -532.244      -907.476      -990.622      -920.978      

310 YR1 0 A 2040.0 0 32 2 369 
D5 0.98772 0.148135 -0.043785 253.534 -81.1115 R1 78.131 
 985.748       993.955       992.589       979.812       972.422       988.49        999.1        
 994.821       995.848       983.663       978.762       986.136       1006.12       1029.53      
 1050.48       1068.22       1102.78       1156.48       1207.11       1245.92       1281.49      
 1299.78       1307.63       1324.25       1346.97       1379.28       1419.73       1469.8       
 1542.68       1629.62       1730.48       1827.53       1933.67       1970.5        1960.44      
 1854.11       1692.02       1480.28       1246.02       1009.63       769.523       281.58       
-69.9096      -139.706      -139.626      -130.047      -128.52       -125.202      -126.759      
-132.529      -141.359      -145.415      -141.513      -127.703      -94.8377      -12.4529      
 125.255       368.876       639.394       794.845       777.281       593.286       345.501      
 77.9488      -199.207      -681.536      -971.371      -985.746      

320 YR1 0 A 2040.0 0 32 2 381 
D5 0.98263 0.14364 -0.04569 252.354 -81.2788 R1 78.4091 
 1106.25       1107.52       1102.63       1089.49       1091.02       1098.95       1094.17      
 1091.83       1094.13       1100.49       1086.56       1092.47       1113.54       1116.23      
 1127.06       1149.38       1168.06       1190.89       1227.87       1261.92       1292.34      
 1306.97       1313.95       1325.82       1344.86       1368.27       1399.67       1437.77      
 1471.85       1527.16       1617.69       1728.69       1797          1833.46       1810.14      
 1726.86       1570.41       1398.57       1197.28       997.996       800.529       367.704      
 7.66925      -74.4778      -63.0928      -62.2002      -63.3149      -63.4703      -65.1915      
-67.2531      -69.3067      -77.0529      -86.6523      -91.9557      -72.7322      -20.3753      
 86.6422       266.769       462.97        593.898       564.03        406.475       178.958      
-62.7868      -293.867      -732.778      -1043.42      -1090.05      

330 YR1 0 A 2040.0 0 32 2 393 
D5 0.989075 0.1381 -0.041225 253.379 -81.7095 R1 83.044 
 1309.66       1318.31       1302.25       1293.32       1310.84       1327.7        1325.4       
 1320.11       1316.14       1320.34       1309.84       1309.63       1329.81       1349.91      
 1363.56       1379          1391.67       1391.88       1414.18       1452.87       1482.12      
 1489.3        1493.07       1500.08       1508.34       1517.14       1526.64       1552.73      
 1592.91       1625.24       1647.63       1686.33       1695.39       1664.24       1584.1       
 1444.85       1249.72       1021.68       797.558       602.854       463.885       245.054      
 15.7487      -62.2337      -61.3866      -56.0695      -52.7928      -51.8665      -51.1348      
-52.9073      -59.0845      -60.0901      -58.7858      -73.5588      -64.5         -15.1987      
 53.112        153.403       240.804       235.859       110.891      -118.323      -411.294      
-689.043      -889.355      -1134.18      -1297.38      -1321.27      

340 YR1 0 A 2040.0 0 32 2 405 
D5 0.98899 0.13579 -0.05021 249.708 -81.6718 R1 80.0125 
 1456.5        1454.11       1468.14       1465.84       1455.63       1461.07       1467.53      
 1473.09       1476.53       1464.68       1462.31       1474.78       1483.61       1486.52      
 1495.79       1511.13       1504.86       1505.22       1510.2        1506.63       1505.33      
 1507.45       1508.5        1511.56       1518.01       1521.67       1527.1        1529.43      
 1523.26       1511.99       1519.03       1513.09       1480.6        1434.01       1354.88      
 1249.06       1108.4        939.262       770.75        615.616       489.156       256.859      
 24.1589      -45.9919      -71.4904      -69.5248      -69.7799      -64.0538      -59.8385      
-54.7606      -55.7865      -65.131       -68.8242      -68.5539      -47.4972      -31.796       
-19.6826       0.550747     -17.5964      -100.785      -245.379      -420.934      -632.96       
-844.564      -1014.78      -1259.08      -1435.1       -1467.34      

350 YR1 0 A 2040.0 0 32 2 417 
D5 0.98359 0.137125 -0.04147 253.173 -81.7131 R1 84.2443 
 1457.36       1447.77       1442.23       1442.62       1447.97       1450.03       1449.3       
 1452.12       1457.81       1464.51       1450.82       1451.26       1462.81       1473.06      
 1475.05       1472.14       1476.29       1475.97       1484.55       1489.81       1486.81      
 1487.52       1486.87       1487.71       1489.91       1491.8        1497          1505.75      
 1518.65       1532.65       1536.79       1535.89       1527.82       1496.64       1442.2       
 1344.05       1204.08       1051.12       887.569       740.884       616.369       380.968      
 114.762       13.6154       9.26952       9.60295       6.15842       6.00593       5.19507      
 1.67523       1.47641       16.6465       15.9839      -4.41648       7.31005       13.434       
 43.8062       61.169        60.2135       15.2089      -82.9849      -258.38       -474.767      
-678.975      -849.504      -1136.01      -1386.31      -1452.22      

355 YR1 0 A 2040.0 0 32 2 441 
D5 0.988675 0.137335 -0.04089 253.42 -81.7533 R1 86.2156 
 1359.27       1343.71       1349.72       1365.51       1361.48       1362.92       1364.03      
 1365.44       1366.69       1372.97       1378.47       1371.26       1366.59       1371.03      
 1375.88       1363.2        1347.58       1373.59       1383.44       1370.46       1369.08      
 1373.65       1378.34       1383.13       1391.15       1395.37       1402.88       1411.43      
 1408.91       1408.6        1427.1        1414.94       1424.03       1393.36       1338.6       
 1251.49       1131.12       976.417       839.93        697.91        590.898       393.546      
 158.044       70.5917       65.2185       67.2939       64.3981       62.006        58.7277      
 60.5997       62.7935       58.131        52.7342       54.1702       40.9819       63.7574      
 70.092        78.9872       69.3146       41.4206      -59.3048      -217.863      -420.262      
-614.655      -789.515      -1041.68      -1282.98      -1364.49      

360 YR1 0 A 2040.0 0 32 2 429 
D5 0.98911 0.137875 -0.039745 253.919 -81.7458 R1 90.2547 
 1263.24       1272.69       1275.08       1260.16       1255.49       1259.83       1257.87      
 1263.89       1263.75       1264.55       1277.85       1283.88       1280.82       1278.31      
 1284          1289.19       1278.49       1281.16       1274.36       1256.96       1254.77      
 1257.49       1263.29       1267.89       1273.64       1276.48       1271.22       1252.69      
 1250.22       1260.86       1251.82       1236.85       1204.89       1159.79       1100.69      
 1001.13       885.01        732.778       583.799       469.549       405.731       319.552      
 178.061       96.5555       95.651        101.051       104.866       106.977       108.686      
 105.109       92.3576       81.2011       84.1213       71.1631       85.1934       88.3721      
 66.2176       60.664        30.8111      -45.5543      -179.335      -350.755      -549.677      
-752.459      -895.407      -1040.22      -1198.11      -1267.11      

365 YR1 0 A 2040.0 0 32 2 453 
D5 0.989083 0.136517 -0.04268 252.639 -81.7714 R1 93.7871 
 1083.03       1084.92       1098.37       1110.63       1098.55       1088.05       1089.83      
 1096.64       1096.91       1092.06       1092.9        1100.32       1092.09       1090.51      
 1090.55       1097.15       1104.63       1097.67       1085.55       1079.82       1076.46      
 1071.87       1071.95       1069.91       1065.82       1063.2        1065.2        1072.37      
 1064.55       1053.47       1029.84       1002.38       950.925       923.846       871.132      
 796.093       703.646       632.006       560.17        505.674       465.512       394.038      
 231.271       142.726       127.382       128.899       129.548       130.734       129.605      
 128.914       128.173       124.585       109.064       115.634       130.248       127.733      
 117.618       76.4026       11.6274      -59.3399      -185.477      -304.687      -436.174      
-556.437      -654.827      -797.556      -991.965      -1078.06      

370 YR3 0 A 2040.0 0 32 2 471 
D5 0.98939 0.135787 -0.04255 252.601 -81.8156 R1 94.4859 
 1034          1045.62       1035.18       1017.99       1025.29       1034.8        1032.27      
 1037.46       1030.15       1031.61       1031.67       1028.51       1050.02       1051.35      
 1028.02       1012.9        1026.88       1020.54       1004.48       989.813       980.723      
 975.596       977.707       978.489       980.713       980.21        975.512       970.756      
 963.947       938.846       898.398       896.606       862.371       814.446       767.724      
 717.384       663.238       611.377       574.624       539.969       507.252       431.161      
 253.783       158.471       153.622       154.595       155.476       154.828       154.012      
 152.236       150.845       154.687       148.469       139.746       129.84        121.117      
 84.7064       47.4755      -19.0685      -99.2326      -197.58       -290.265      -387.002      
-470.346      -541.12       -697.811      -923.8        -1026.28      

380 YR3 0 A 2040.0 0 32 2 483 
D5 0.989795 0.134815 -0.03783 254.326 -81.948 R1 96.9591 
 944.405       940.355       954.188       961.105       951.792       956.583       957.489      
 954.334       948.883       956.956       964.217       953.906       944.649       940.374      
 931.185       918           906.837       897.704       875.114       854.552       848.32       
 846.028       847.231       845.061       841.788       837.608       830.335       812.308      
 792.254       785.767       747.303       730.609       705.084       673.708       655.857      
 626.017       606.389       574.317       550.69        525.109       499.346       413.188      
 230.427       138.718       134.635       134.235       134.286       130.966       127.341      
 123.209       115.294       116.68        121.284       120.871       115.821       90.8175      
 33.6786      -24.2891      -96.6889      -161.671      -222.504      -285.239      -345.522      
-398.793      -457.479      -614.398      -843.727      -940.237      

390 YR4 0 A 2040.0 0 32 2 496 
D5 0.990277 0.132533 -0.0365567 254.579 -82.096 R1 96.5881 
 902.698       902.901       893.212       888.282       902.383       906.217       910.317      
 909.383       916.411       915.866       908.711       912.903       911.764       893.366      
 874.253       863.998       860.434       840.955       825.758       806.121       789.255      
 780.906       781.965       774.909       767.511       763.091       762.307       764.209      
 750.929       723.467       697.516       662.218       627.185       605.996       586.71       
 569.223       565.039       558.733       530.73        516.558       484.836       388.135      
 196.516       114.49        114.671       110.361       108.428       106.771       105.243      
 105.17        112.197       115.674       112.272       104.541       81.0749       43.3127      
 6.23163      -59.9224      -129.392      -200.114      -240.301      -292.663      -340.16       
-377.63       -426.341      -593.465      -818.292      -901.314      

400 YR1 0 A 2040.0 0 32 2 501 
D5 0.990155 0.13288 -0.03504 255.228 -82.0985 R1 97.9984 
 828.741       834.076       836.183       825.41        826.763       834.058       833.67       
 836.01        828.381       824.606       820.384       819.282       805.54        794.158      
 786.296       775.968       763.679       755.55        757.986       743.623       720.059      
 710.775       710.289       710.183       708.759       704.284       694.168       689.169      
 686.647       662.819       615.19        590.209       561.685       539.522       521.285      
 511.977       498.967       481.402       471.321       450.074       430.336       334.125      
 172.013       108.599       85.7782       80.5392       80.5899       78.3941       79.189       
 80.4162       80.4499       79.5814       78.9202       74.5666       58.6876       47.6304      
-15.9868      -68.6995      -133.826      -195.299      -246.596      -276.325      -314.189      
-360.141      -400.958      -545.497      -740.991      -824.094      

410 YR4 0 A 2040.0 0 32 2 520 
D5 0.989733 0.13481 -0.0315733 256.818 -82.0363 R1 97.8209 
 779.38        772.756       770.901       776.699       781.349       771.62        779.504      
 780.639       776.122       784.777       786.452       776.319       755.264       741.76       
 754.886       758.064       742.505       727.709       716.015       708.851       700.645      
 696.34        696.365       690.117       683.584       673.202       661.307       645.479      
 628.056       610.285       585.23        558.344       524.713       515.776       492.79       
 477.659       459.558       454.631       427.697       418.899       388.113       294.064      
 148.627       79.2788       95.3543       99.1163       98.2803       97.1621       94.6578      
 89.5923       88.2982       80.3552       76.1727       80.9733       62.4287       30.6216      
-16.2639      -73.5204      -133.783      -194.4        -234.644      -276.579      -313.256      
-348.934      -393.826      -530.547      -707.992      -775.462      

420 YR1 0 A 2040.0 0 32 2 525 
D5 0.98979 0.132965 -0.038895 253.695 -82.0323 R1 95.1539 
 756.816       773.435       775.188       767.138       750.078       740.836       742.942      
 753.116       754.015       736.566       740.716       752.977       751.069       737.604      
 729.724       723.486       720.087       712.844       692.122       685.385       669.938      
 662.247       661.228       658.39        657.368       655.647       650.732       641.149      
 621.982       604.684       594.352       575.271       547.364       517.672       484.808      
 459.141       441.851       427.285       410.404       379.259       364.19        264.679      
 142.479       86.4595       90.6861       95.3183       97.6394       99.9248       101.976      
 100.893       99.2603       97.0268       98.43         105.371       86.1137       58.024       
 20.9418      -34.8318      -104.782      -159.893      -212.334      -250.194      -297.057      
-335.799      -387.302      -519.605      -683.884      -748.144      

430 YR1 0 A 2040.0 0 32 2 537 
D5 0.9899 0.134035 -0.037595 254.332 -81.9951 R1 94.3654 
 735.089       746.604       749.274       736.869       735.566       744.666       750.001      
 743.222       746.827       754.046       751.288       739.192       725.055       723.746      
 718.571       710.872       712.415       705.435       698.503       691.073       675.729      
 667.731       668.655       666.625       665.849       664.44        664.829       662.623      
 648.73        634.945       615.222       593.176       550.579       521.746       498.06       
 477.544       445.467       431.443       404.665       382.381       346.657       255.608      
 132.364       81.6584       75.2333       74.9021       79.4789       79.4954       82.2534      
 83.6271       83.9149       82.3622       82.6748       82.1356       70.1447       56.7422      
 33.0668      -9.45593      -72.4298      -129.928      -194.537      -232.909      -287.188      
-336.975      -381.443      -519.645      -679.266      -731.246      

440 YR1 0 A 2040.0 0 32 2 549 
D5 0.989855 0.132965 -0.03616 254.786 -82.075 R1 94.313 
 704.018       710.615       710.375       715.742       722.181       714.069       704.854      
 712.92        717.895       715.237       710.039       702.999       700.767       702.614      
 698.813       689.755       692.786       698.942       696.684       690.32        677.183      
 675.486       675.265       674.609       672.366       668.934       664.97        653.647      
 636.215       616.804       613.515       590.947       549.494       526.227       486.306      
 459.05        434.025       412.126       391.787       351.735       324.248       237.989      
 121.573       77.8657       68.7055       65.1048       66.9088       65.0983       62.4263      
 61.0578       59.7665       61.175        56.5674       61.1915       60.5173       53.2917      
 27.2042      -11.9931      -69.5832      -136.133      -177.336      -235.345      -291.363      
-342.384      -390.199      -514.145      -656.832      -704.442      

450 YR1 0 A 2040.0 0 32 2 561 
D5 0.989755 0.13154 -0.03857 253.658 -82.1149 R1 92.0605 
 688.42        693.818       697.86        697.793       693.097       695.86        689.031      
 689.963       702.93        707.79        693.43        693.543       691.321       691.936      
 692.19        692.511       688.454       678.313       667.747       665.388       665.911      
 663.379       662.029       658.387       651.032       645.615       642.505       639.582      
 623.897       610.991       602.673       586.724       547.655       505.508       485.212      
 452.296       425.543       402.017       381.333       345.448       310.123       227.332      
 118.982       91.9337       75.1359       73.081        69.0216       63.69         58.8862      
 55.3309       62.6168       67.5444       71.5942       65.5718       45.6573       43.2864      
 19.8787       6.03188      -53.9841      -101.549      -170.341      -227.269      -277.051      
-328.074      -370.87       -501.976      -642.966      -696.199      

460 YR1 0 A 2040.0 0 32 2 573 
D5 0.99003 0.12971 -0.038255 253.567 -82.2218 R1 90.7522 
 679.718       691.067       683.787       682.425       683.469       688.786       683.443      
 692.668       689.865       687.616       682.625       675.977       681.749       674.105      
 664.514       660.755       670.481       671.076       667.345       661.606       656.99       
 653.305       653.258       652.58        654.435       657.376       658.472       649.167      
 633.905       623.437       602.631       585.425       563.757       527.761       502.454      
 474.73        437.026       408.637       370.358       343.354       311.54        216.059      
 116.548       73.7071       79.0426       78.4979       77.5757       72.6588       70.1132      
 69.6656       68.7392       66.7513       70.1879       87.2856       80.3253       51.4785      
 47.9461       9.58157      -28.3984      -94.0528      -160.778      -205.835      -263.001      
-325.13       -374.279      -499.055      -639.009      -680.119      

470 YR2 0 A 2040.0 0 32 2 586 
D5 0.990973 0.127697 -0.03923 252.923 -82.3226 R1 90.3556 
 656.351       662.438       659.44        651.249       651.569       661.768       673.677      
 676.121       662.604       655.888       658.972       662.304       668.797       674.404      
 668.611       657.662       652.642       648.892       634.054       625.389       618.441      
 612.998       613.788       611.311       608.018       606.935       609.646       604.511      
 598.119       603.609       577.985       550.101       529.353       506.682       475.022      
 440.61        411.112       379.888       345.057       320.249       282.435       205.961      
 106.605       69.6709       64.4007       67.2291       69.6801       71.646        75.0958      
 73.1955       67.2825       66.2905       69.622        69.9222       66.3386       51.5389      
 41.1557       14.4216      -38.3003      -95.3584      -141.636      -196.519      -259.077      
-305.74       -367.005      -475.512      -605.659      -656.738      

480 YR1 0 A 2040.0 0 32 2 597 
D5 0.99067 0.126335 -0.03843 253.081 -82.4075 R1 89.89 
 638.291       639.804       643.492       646.483       652.683       658.078       651.943      
 645.629       639.159       639.636       637.285       641.805       641.015       635.927      
 639.787       642.174       644.995       643.653       638.971       638.238       635.277      
 631.06        629.282       627.539       625.029       619.969       618.318       614.174      
 605.879       584.492       565.518       548.569       524.917       491.012       468.084      
 436.383       390.318       365.971       334.064       303.547       268.641       193.581      
 98.9834       72.8815       72.6969       75.8808       71.9969       73.4632       71.8156      
 70.1364       64.9933       65.9318       62.2791       57.6108       41.8506       35.9106      
 23.1774      -0.171399     -30.2847      -85.8752      -147.746      -196.856      -251.905      
-295.268      -352.116      -474.876      -596.785      -640.439      

490 YR3 0 A 2040.0 0 32 2 615 
D5 0.990905 0.12597 -0.036165 253.982 -82.4657 R1 91.3653 
 608.715       617.28        617.473       617.828       608.638       605.314       605.757      
 616.741       621.392       615.911       615.701       610.406       610.747       602.849      
 593.61        588.172       587.11        588.313       582.501       578.122       575.369      
 572.266       573.503       573.182       569.541       564.29        559.539       558.163      
 552.759       544.017       541.713       528.807       504.472       461.447       436.307      
 405.299       366.87        343.177       324.147       286.24        257.184       181.19       
 97.0332       57.7755       55.0248       58.6379       60.8147       61.1081       63.1243      
 66.6973       68.6959       62.2319       61.3976       65.7836       57.1251       47.7546      
 21.676        1.93815      -29.7034      -84.0128      -147.813      -197.966      -241.379      
-290.027      -340.237      -447.567      -562.395      -607.563      

500 YR1 0 A 2040.0 0 32 2 621 
D5 0.990765 0.12635 -0.03503 254.504 -82.4613 R1 90.5913 
 572.456       583.592       579.469       581.886       587.697       577.322       566.935      
 569.073       572.487       565.998       556.7         567.795       579.584       573.49       
 573.639       573.701       566.969       558.813       557.197       552.597       546.603      
 545.716       541.922       540.752       536.344       531.164       529.77        529.471      
 510.542       497.556       497.38        480.426       457.004       429.551       403.27       
 382.648       345.632       319.664       290.496       267.973       230.419       165.119      
 90.5805       63.3632       65.1615       69.386        70.6633       71.6451       69.6967      
 66.4964       58.1431       48.3734       47.671        60.9032       49.4799       49.4056      
 43.0585       15.3939      -26.9729      -76.3507      -147.048      -188.374      -232.596      
-282.563      -325.171      -425.461      -529.216      -569.426      

510 YR3 0 A 2040.0 0 32 2 639 
D5 0.990995 0.1253 -0.032825 255.32 -82.5534 R1 91.5637 
 528.18        529.933       524.444       519.876       524.855       530.694       530.67       
 536.743       540.539       530.908       520.762       524.153       521.047       518.724      
 516.818       509.671       505.002       508.354       512.046       511.357       506.795      
 500.374       500.185       499.47        495.955       494.781       493.142       490.382      
 491.079       477.748       463.282       450.395       422.278       395.849       374.914      
 344.085       316.786       295.99        276.778       240.309       210.153       152.384      
 85.3623       57.2085       56.8562       59.3261       62.3213       63.0075       65.2725      
 65.7403       65.3265       61.6913       57.5099       63.9213       55.7677       38.1695      
 34.7587       6.92878      -36.9695      -81.6087      -129.056      -183.957      -222.672      
-264.219      -305.391      -398.085      -495.645      -537.386      

520 YR1 0 A 2040.0 0 32 2 645 
D5 0.991335 0.12431 -0.033495 254.92 -82.6004 R1 90.232 
 503.307       503.857       505.694       498.01        495.945       502.123       510.696      
 520.336       527.307       518.219       500.623       498.562       502.189       503.244      
 503.816       499.727       495.476       495.746       499.257       504.184       500.99       
 495.582       496.408       493.63        491.914       489.571       485.036       470.201      
 457.454       455.895       451.217       429.826       407.978       384.581       356.912      
 327.275       300.108       284.237       259.877       231.864       194.964       141.4        
 80.8216       47.0342       49.9864       48.7054       52.7105       52.5309       53.7121      
 52.7177       50.6626       48.7155       52.5076       47.6994       41.9377       41.4866      
 26.2325       2.77996      -31.2032      -69.6609      -116.938      -166.189      -210.671      
-248.525      -293.345      -380.66       -471.801      -498.961      

530 YR1 0 A 2040.0 0 32 2 657 
D5 0.991175 0.12235 -0.033425 254.72 -82.7079 R1 91.0335 
 473.376       473.7         475.537       469.009       474.652       484.268       489.308      
 487.847       489.77        479.896       484.764       492.183       487.764       479.742      
 462.126       461.747       464.255       461.408       466.486       461.194       454.44       
 450.976       449.378       445.038       439.085       434.442       437.239       442.023      
 448.244       440.578       413.837       400.519       389.299       369.427       342.563      
 302.373       280.37        258.017       235.53        207.726       188.008       128.334      
 75.5608       44.8851       62.2574       64.268        65.0214       64.6148       61.5251      
 55.1595       50.335        41.2457       28.9135       27.7365       30.0276       25.8666      
 25.7445       2.24592      -27.8582      -68.825       -120.417      -157.206      -204.721      
-234.262      -276.3        -356.082      -441.855      -467.676      

540 YR1 0 A 2040.0 0 32 2 669 
D5 0.99138 0.12205 -0.032225 255.21 -82.7435 R1 91.1286 
 444.098       439.59        438.445       437.977       444.614       451.523       447.837      
 435.145       432.757       436.643       440.163       444.933       442.757       429.584      
 430.335       445.745       448.961       437.293       419.529       413.507       410.32       
 409.355       412.396       410.929       413.081       412.348       412.167       406.506      
 397.841       387.803       377.493       359.329       353.86        333.582       312.933      
 283.694       248.756       225.86        213.38        197.34        168.922       116.263      
 68.4735       48.513        52.2567       55.6408       59.4452       59.8061       63.5119      
 58.8271       48.7582       39.2165       35.9926       34.9089       34.3753       31.6086      
 11.3232      -0.0199996    -33.4474      -78.0798      -117.241      -154.572      -186.177      
-223.603      -258.917      -336.095      -413.431      -443.059      

550 YR1 0 A 2040.0 0 32 2 681 
D5 0.99136 0.12232 -0.031305 255.645 -82.7417 R1 89.946 
 409.605       416.461       425.708       431.87        427.32        413.272       421.44       
 437.859       445.057       423.937       416.735       424.233       427.542       426.23       
 425.617       424.165       422.309       415.541       409.773       405.995       400.235      
 400.459       400.896       400.425       400.346       397.939       396.402       390.34       
 371.538       359.247       362.73        333.264       333.584       312.765       294.592      
 271.533       250.637       230.196       206.039       180.732       161.629       109.28       
 61.5608       37.0963       38.5899       37.0079       34.4815       28.2087       22.06        
 11.9265       11.2853       16.4672       13.3968       13.5763       14.9656       28.8306      
 17.8223       4.62112      -26.5481      -72.2551      -111.785      -148.558      -185.961      
-215.592      -248.548      -322.487      -396.658      -416.155      

560 YR1 0 A 2040.0 0 32 2 693 
D5 0.9912 0.12324 -0.03027 256.2 -82.7041 R1 90.7849 
 386.683       397.96        389.006       391.626       394.902       395.962       403.238      
 401.098       388.514       385.537       381.006       386.914       386.434       386.438      
 388.524       390.941       385.174       371.367       371.48        373.081       368.5        
 367.24        366.097       366.301       368.91        370.512       371.802       367.012      
 348.226       348.661       346.342       318.784       307.16        290.357       271.098      
 246.483       222.907       197.31        183.428       159.892       138.765       96.2749      
 55.4447       44.9302       43.725        43.0389       42.6744       39.4269       35.5898      
 31.6296       31.5939       38.8237       37.7377       39.4459       44.4209       22.3013      
 12.4495      -12.858       -31.3957      -64.4264      -105.292      -142.234      -176.959      
-208.252      -249.497      -306.328      -370.877      -396.566      

570 YR1 0 A 2040.0 0 32 2 705 
D5 0.991435 0.120205 -0.034215 254.112 -82.8152 R1 87.855 
 360.991       369.848       377.613       377.24        380.29        379.03        387.647      
 398.992       381.462       369.408       374.126       378.271       385.384       383.524      
 379.113       374.622       374.352       366.713       362.657       357.821       353.259      
 353.631       352.024       354.521       357.969       364.534       369.294       359.833      
 344.622       320.347       320.788       304.915       279.434       266.783       255.33       
 234.925       206.933       192.15        172.673       152.848       137.292       92.5843      
 55.7525       48.3895       25.9789       26.836        25.5895       27.1915       27.0224      
 28.0623       25.516        28.0612       29.4702       25.9064       15.5901       18.2107      
 18.9033      -3.73461      -37.6293      -60.9161      -102.123      -146.293      -178.35       
-207.289      -233.111      -294.264      -354.787      -374.663      

580 YR3 0 A 2040.0 0 32 2 723 
D5 0.991815 0.118895 -0.03399 254.046 -82.8931 R1 87.1422 
 363.739       376.684       383.53        375.633       366.482       361.104       374.544      
 371.803       373.767       395.244       388.028       366.037       363.395       367.627      
 364.414       362.543       350.592       339.413       346.675       343.569       337.217      
 340.451       339.423       340.814       340.557       338.536       335.462       338.065      
 338.214       323.614       299.777       285.271       282           241.685       246.77       
 224.724       203.027       189.332       178.298       163.241       141.666       93.9175      
 53.663        35.0414       25.5479       28.5547       27.0099       28.1915       28.4251      
 30.7133       37.0686       46.0989       53.794        42.505        43.0123       28.2929      
 6.05007      -22.0547      -52.7653      -65.3414      -105.861      -131.382      -167.032      
-199.623      -222.333      -286.035      -350.647      -368.375      

590 YR1 0 A 2040.0 0 32 2 729 
D5 0.991955 0.11772 -0.032415 254.604 -82.9827 R1 86.093 
 358.791       363.263       366.449       365.98        370.981       379.33        374.524      
 379.229       392.077       378.64        373.911       382.341       370.826       372.456      
 379.338       371.173       375.269       378.495       361.579       354.85        347.504      
 342.686       341.961       340.662       335.463       332.928       336.531       341.541      
 322.171       316.067       315.164       303.062       278.137       261.56        251.897      
 229.337       207.029       181.718       174.18        157.514       129.906       93.875       
 54.2498       48.1198       36.5534       34.8444       33.4826       29.8813       28.5766      
 28.7592       29.0495       27.4913       34.0423       41.0983       23.9395       29.0987      
 11.8163      -4.48319      -27.0095      -63.1347      -93.9702      -127.99       -168.695      
-197.698      -224.841      -277.756      -340.983      -370.323      

600 YR1 0 A 2040.0 0 32 2 741 
D5 0.992473 0.11463 -0.0325633 254.141 -83.1533 R1 85.6185 
 348.788       354.122       354.104       344.862       346.213       357.557       359.098      
 363.381       354.411       349.817       333.577       334.87        358.163       360.774      
 355.888       338.012       320.685       326.516       332.825       330.616       322.352      
 318.015       317.646       316.637       316.329       313.367       307.79        295.435      
 289.793       284.456       276.476       267.901       263.131       243.645       234.348      
 210.395       192.537       187.771       164.484       140.305       127.659       91.7846      
 51.19         43.9417       40.6787       39.4187       38.104        38.2764       38.3251      
 34.2608       28.1663       28.5954       32.0322       34.4091       23.4186       26.3863      
 18.1893       3.8783       -23.4013      -72.309       -105.809      -132.648      -153.482      
-184.396      -212.466      -270.083      -325.944      -356.591      

610 YR1 0 A 2040.0 0 32 2 753 
D5 0.992462 0.112448 -0.03211 254.063 -83.2798 R1 85.3465 
 336.458       330.961       336.239       334.299       339.368       338.102       332.462      
 338.374       346.746       348.373       347.064       343.786       333.526       327.17       
 325.421       315.028       311.415       311.829       316.704       318.013       307.423      
 306.117       306.822       310.526       311.184       311           311.503       313.806      
 313.305       302.416       292.383       269.707       258.571       236.926       212.421      
 207.206       180.521       158.106       145.288       132.577       120.26        86.9645      
 54.9697       44.7669       47.5495       48.885        48.8292       47.5317       42.0602      
 40.1194       39.2924       38.0032       29.7706       29.9997       30.2482       15.6528      
 8.94656      -10.5566      -34.8166      -77.643       -103.839      -132.221      -159.58       
-181.16       -208.265      -262.155      -319.932      -336.157      

620 YR1 0 A 2040.0 0 32 2 771 
D5 0.99272 0.11142 -0.03193 254.009 -83.3406 R1 86.3448 
 318.388       321.601       329.141       332.687       326.123       327.961       338.001      
 339.646       330.743       328.352       334.789       336.316       330.429       333.189      
 334.706       322.178       310.404       303.035       303.75        302.208       296.489      
 291.467       291.014       290.767       288.394       286.482       292.315       310.509      
 310.211       288.996       279.088       265.555       257.27        240.72        222.345      
 211.659       188.027       167.722       151.065       139.558       110.352       79.9093      
 45.5708       32.6186       36.5969       41.2746       43.2078       40.4791       36.8504      
 34.4571       29.0023       23.9798       33.1401       42.9269       32.5144       39.1565      
 10.926       -9.12366      -16.9208      -42.1558      -77.3817      -111.159      -146.593      
-177.459      -204.83       -255.287      -306.615      -331.03       

630 YR3 0 A 2040.0 0 32 2 789 
D5 0.99285 0.10872 -0.03101 254.08 -83.5037 R1 86.8849 
 315.516       317.203       321.932       327.35        329.083       319.642       310.71       
 312.621       312.53        310.22        305.193       301.208       309.898       317.279      
 305.985       299.12        307.857       318.422       308.277       302.089       303.435      
 304.579       302.989       303.841       300.98        293.442       285.263       284.029      
 291.115       287.151       285.066       276.287       251.61        235.015       225.911      
 204.465       179.477       163.029       135.747       127.107       107.901       76.9887      
 48.6653       37.8194       51.0343       54.7976       57.8411       52.4451       47.3402      
 40.1198       30.6142       31.573        37.8329       34.7626       18.9697       26.3198      
 16.8323       19.2474      -4.87395      -34.7633      -54.9688      -98.2679      -126.737      
-158.593      -183.748      -235.844      -286.838      -306.77       

640 YR1 0 A 2040.0 0 32 2 795 
D5 0.992903 0.108837 -0.02996 254.609 -83.5138 R1 85.7129 
 308.3         305.389       312.285       314.358       306.75        307.975       311.349      
 315.46        314.132       310.662       315.767       319.594       307.83        295.854      
 299.164       305.534       306.783       300.02        293.99        293.87        297.415      
 294.977       295.091       296.248       295.872       297.408       296.634       296.624      
 295.988       286.404       277.589       265.485       249.989       243.242       235.694      
 210.768       189.273       162.721       143.998       124.675       104.377       74.8769      
 43.1657       35.1049       26.0164       28.436        29.7514       29.8884       33.2278      
 34.8411       34.8763       32.9141       24.1609       31.6374       30.6128       34.0556      
 27.302        15.5234      -9.61689      -39.2526      -59.1932      -100.861      -134.627      
-158.453      -187.917      -239.458      -287.424      -309.286      

650 YR1 0 A 2040.0 0 32 2 813 
D5 0.992853 0.108343 -0.0322933 253.403 -83.5039 R1 82.9568 
 296.745       294.506       291.641       289.105       290.189       288.526       296.332      
 297.073       293.786       292.126       290.97        291.002       298.43        298.242      
 302.147       307.222       300.545       291.962       280.313       289.117       300.393      
 298.123       298.89        299.288       300.109       304.413       307.728       304.843      
 286.887       283.541       288.674       273.519       261.3         231.262       216.119      
 191.239       185.473       162.17        140.03        119.077       102.399       77.1325      
 48.1394       38.3378       28.6281       36.8039       41.3415       43.6123       45.4974      
 44.8869       39.2592       29.8394       19.8704       32.8048       44.1229       29.7469      
 37.6146       29.5174       5.03648      -19.7542      -70.2927      -109.57       -131.123      
-154.707      -174.855      -225.371      -271.088      -302.124      

660 YR1 0 A 2040.0 0 32 2 825 
D5 0.992915 0.10743 -0.031885 253.469 -83.5607 R1 86.3021 
 275.224       290.966       287.082       280.901       281.145       278.333       272.341      
 275.128       274.392       287.346       293.661       280.908       277.824       275.167      
 275.45        278.546       284.439       277.023       268.874       274.276       274.16       
 273.084       275.119       273.452       271.559       269.735       266.317       267.327      
 267.725       260.342       261.391       243.555       227.669       216.995       198.452      
 176.977       161.243       128.228       118.174       103.897       86.5445       64.0172      
 39.5875       41.9142       54.3596       58.4005       55.245        54.503        49.593       
 43.337        32.2081       27.5442       32.0549       24.5133       34.0375       31.4514      
 24.822        8.60239      -11.2861      -31.0873      -67.4833      -85.3491      -117.21       
-146.1        -178.497      -217.592      -258.869      -273.468      

665 YR2 0 A 2040.0 0 32 2 838 
D5 0.992793 0.107627 -0.0304833 254.186 -83.5714 R1 87.1244 
 284.154       279.752       279.447       265.184       253.877       274.185       275.026      
 266.051       273.641       282.461       286.206       275.885       276.597       269.225      
 261.536       267.652       271.045       266.738       263.046       260.381       250.532      
 248.826       246.784       244.928       243.384       244.897       254.968       267.657      
 271.833       262.455       255.629       245.975       249.318       231.893       187.091      
 186.66        166.203       141.585       122.671       102.192       85.1045       59.4989      
 37.5009       27.4587       13.3699       14.1452       15.8439       19.4199       24.5043      
 30.9133       36.0952       36.9704       33.6522       39.8043       37.791        22.211       
 22.1172       8.8179       -13.0088      -28.7221      -65.274       -94.4125      -132.337      
-160.649      -173.401      -217.012      -255.774      -275.847      

