<FMT> 210                       ~ data format
<UNI> picoTesla                 ~ data units
<OPR> William Christo           ~ operator's name
<XYP> 117 0 201 0               ~ X-Y probe #, SOA, tool #, tool id
<CUR> 25.0                      ~ peak current in loop (2 X meter reading)
<TXS> 400.0 0.0 0               ~ loop size (x y units) (units: 0 = m, 1 = ft
~ Transmitter Loop Co-ordinates:
<L00> 407362.0 5184407.5 304.0 0 ~ loop coord.   | 4 numbers - (x,y,z,units)
<L01> 407333.8 5184433.0 308.7 0 ~ loop coord.   |  values for units:
<L02> 407303.4 5184463.5 307.4 0 ~ loop coord.   |   0 = metres;  1 = feet
<L03> 407306.6 5184499.0 309.5 0 
<L04> 407286.9 5184532.5 313.3 0 
<L05> 407265.3 5184568.0 309.0 0 
<L06> 407239.5 5184605.5 313.6 0 
<L07> 407220.2 5184643.5 315.6 0 
<L08> 407202.8 5184671.0 312.3 0 
<L09> 407172.8 5184648.5 308.7 0 
<L10> 407142.6 5184632.5 313.0 0 
<L11> 407111.3 5184609.0 311.8 0 
<L12> 407081.4 5184594.5 308.9 0 
<L13> 407043.8 5184564.5 306.6 0 
<L14> 407023.1 5184538.0 307.5 0 
<L15> 406993.8 5184526.5 312.5 0 
<L16> 406962.7 5184510.5 312.4 0 
<L17> 406935.3 5184484.5 316.9 0 
<L18> 406912.6 5184463.5 310.3 0 
<L19> 406894.4 5184435.5 308.1 0 
<L20> 406887.1 5184413.0 306.4 0 
<L21> 406915.4 5184381.5 311.0 0 
<L22> 406934.1 5184349.0 308.9 0 
<L23> 406954.7 5184314.0 313.8 0 
<L24> 406968.8 5184288.5 319.2 0 
<L25> 406987.8 5184263.5 317.7 0 
<L26> 407009.9 5184234.0 308.6 0 
<L27> 407033.4 5184207.5 317.0 0 
<L28> 407051.8 5184186.0 316.0 0 
<L29> 407073.3 5184149.5 309.3 0 
<L30> 407083.5 5184121.0 314.6 0 
<L31> 407122.4 5184135.0 313.9 0 
<L32> 407160.0 5184143.0 312.9 0 
<L33> 407184.5 5184166.0 313.3 0 
<L34> 407212.0 5184188.5 308.4 0 
<L35> 407245.7 5184212.0 311.1 0 
<L36> 407281.2 5184232.5 309.5 0 
<L37> 407313.7 5184252.5 307.3 0 
<L38> 407349.6 5184279.5 309.1 0 
<L39> 407374.5 5184311.0 309.6 0 
<L40> 407399.8 5184333.5 305.8 0 
<L41> 407403.4 5184347.0 308.2 0 
<L42> 407384.7 5184374.0 310.5 0 
~ Hole/Profile Co-ordinates:
<P00> 407158.5 5184370.0 312.2 0 ~ 0=Collar/Start| 5 numbers: (x,y,z,units,stn)
<P01> 113.9 79.4 10.0 2 10.0    ~|1->99 =(x,y,z)| values for 'units':
<P02> 113.9 79.4 10.0 2 20.0    ~| or  segment's| 0 = metres; 1 = feet
<P03> 113.9 79.4 10.0 2 30.0    ~|(grid azimuth,| 2=az(deg) dip(deg) length(m)
<P04> 113.9 79.4 10.0 2 40.0    ~| +ve down dip,| 3=az(deg) dip(deg) length(ft)
<P05> 113.9 79.4 10.0 2 50.0    ~|segm't length)| 'stn': surface PEM (W&S -ve)
<P06> 113.6 79.4 10.0 2 60.0    
<P07> 113.4 79.4 10.0 2 70.0    
<P08> 114.6 79.4 10.0 2 80.0    
<P09> 114.9 79.4 10.0 2 90.0    
<P10> 115.6 79.5 10.0 2 100.0   
<P11> 116.3 79.5 10.0 2 110.0   
<P12> 115.0 79.4 10.0 2 120.0   
<P13> 115.8 79.4 10.0 2 130.0   
<P14> 117.6 79.5 10.0 2 140.0   
<P15> 117.7 79.6 10.0 2 150.0   
<P16> 117.3 79.5 10.0 2 160.0   
<P17> 117.2 79.4 10.0 2 170.0   
<P18> 116.9 79.4 10.0 2 180.0   
<P19> 116.5 79.4 10.0 2 190.0   
<P20> 117.1 79.5 10.0 2 200.0   
<P21> 118.2 79.5 10.0 2 210.0   
<P22> 118.4 79.5 10.0 2 220.0   
<P23> 118.5 79.4 10.0 2 230.0   
<P24> 119.3 79.4 10.0 2 240.0   
<P25> 119.9 79.5 10.0 2 250.0   
<P26> 119.9 79.5 10.0 2 260.0   
<P27> 119.3 79.8 10.0 2 270.0   
<P28> 120.8 80.0 10.0 2 280.0   
<P29> 120.6 80.2 10.0 2 290.0   
<P30> 117.7 80.5 10.0 2 300.0   
<P31> 115.9 80.9 10.0 2 310.0   
<P32> 114.1 81.2 10.0 2 320.0   
<P33> 112.6 81.5 10.0 2 330.0   
<P34> 110.4 81.7 10.0 2 340.0   
<P35> 107.3 81.7 10.0 2 350.0   
<P36> 105.3 81.7 10.0 2 360.0   
<P37> 104.5 81.8 10.0 2 370.0   
<P38> 103.8 81.9 10.0 2 380.0   
<P39> 103.4 82.0 10.0 2 390.0   
<P40> 103.4 82.1 10.0 2 400.0   
<P41> 104.0 82.1 10.0 2 410.0   
<P42> 104.3 82.0 10.0 2 420.0   
<P43> 103.8 82.0 10.0 2 430.0   
<P44> 102.9 82.0 10.0 2 440.0   
<P45> 102.2 82.1 10.0 2 450.0   
<P46> 101.3 82.2 10.0 2 460.0   
<P47> 100.1 82.3 10.0 2 470.0   
<P48> 98.7 82.4 10.0 2 480.0    
<P49> 97.5 82.4 10.0 2 490.0    
<P50> 96.9 82.5 10.0 2 500.0    
<P51> 96.9 82.5 10.0 2 510.0    
<P52> 96.6 82.6 10.0 2 520.0    
<P53> 96.0 82.7 10.0 2 530.0    
<P54> 95.5 82.7 10.0 2 540.0    
<P55> 95.4 82.7 10.0 2 550.0    
<P56> 95.5 82.7 10.0 2 560.0    
<P57> 95.1 82.8 10.0 2 570.0    
<P58> 94.1 82.8 10.0 2 580.0    
<P59> 92.9 82.9 10.0 2 590.0    
<P60> 91.6 83.1 10.0 2 600.0    
<P61> 90.3 83.2 10.0 2 610.0    
<P62> 89.2 83.3 10.0 2 620.0    
<P63> 88.5 83.4 10.0 2 630.0    
<P64> 87.4 83.5 10.0 2 640.0    
<P65> 86.1 83.5 10.0 2 650.0    
<P66> 84.8 83.5 10.0 2 660.0    
<P67> 84.1 83.6 6.0 2 666.0     
<GEN> CRS: UTM Zone 16 North, WGS 1984
<HE3>Data Corrected for Probe Rotation using Orientation Tool #201
~Tags for comment list:  <GEN>, <STA><Stn>, <STX><Stn>, <STY><Stn>, <STZ><Stn>
~ <RDG><Rdg#>, <MOD>
~Tags for list & plot comments: <SPA><Stn>, <SPX><Stn>, <SPY><Stn>, <SPZ><Stn>
~Tags for headings: <HE1>, <HE2>, <HE3>, <HE4>
Bitterroot
Loop01
BR01
01
July 12, 2020
BH-FLUX Metric Crystal-Master 50.00 1500 67 136
#401 3.02 Jun04,2020 br01 N 1000 500 +

-0.002        -0.0019       -0.0019       -0.0018       -0.0017       -0.0016       -0.0015       
-0.0014       -0.0013       -0.0012       -0.0011       -0.001        -0.0009       -0.0008       
-0.0007       -0.0006       -0.0005       -0.0004       -0.0003       -0.0002       -0.0001       
 0             5e-05         6e-05         8e-05         0.00011       0.00015       0.0002       
 0.00027       0.00036       0.00048       0.00064       0.00085       0.00113       0.0015       
 0.00199       0.00264       0.00351       0.00466       0.00619       0.00822       0.01092      
 0.0144        0.03106       0.04773       0.0485        0.04855       0.04856       0.04858      
 0.04861       0.04865       0.0487        0.04877       0.04886       0.04898       0.04914      
 0.04935       0.04963       0.05          0.05049       0.05114       0.05201       0.05316      
 0.05469       0.05672       0.05942       0.0629        0.07956       0.09623       0.098        
$
50 XR1 0 A 2040.0 0 32 2 1 
D5 0.51491 0.209815 0.083215 111.634 -90 R3 111.632 
 5632.9        5615.43       5609.88       5621.76       5628.49       5635.51       5641.41      
 5634.53       5678.36       5827.8        5984.2        6080.52       6140.25       6145.39      
 6108.68       6077.63       6005.1        5882.46       5746.85       5623.94       5515.37      
 5467.18       5443.5        5402.13       5343.99       5266.84       5154.01       4964.96      
 4645.13       4230.73       3780.41       3321.53       2885.17       2479.94       2105.88      
 1812.98       1548.86       1327.32       1135.2        972.439       832.164       567.003      
 317.106       246.741       242.618       241.61        240.289       237.421       237.012      
 235.77        252.876       323.89        535.255       785.779       819.393       609.117      
 104.659      -732.504      -1717.16      -2617.88      -3327.97      -3832.98      -4192.58      
-4449.47      -4683.23      -5091.48      -5482.44      -5620.8       

60 XR3 0 A 2040.0 0 32 2 19 
D5 0.521845 0.20639 0.086735 112.794 -90 R3 112.794 
 4575.21       4565.41       4559.7        4574.35       4584.9        4592.62       4578.21      
 4576.85       4653.64       4814.93       5001.18       5174.47       5307.27       5388.77      
 5436.9        5463.09       5470.06       5460.03       5432.64       5376.64       5317.08      
 5291.75       5281.88       5261.15       5236.09       5209.26       5162.5        5031.78      
 4752.54       4354.52       3927.57       3479.22       3044.13       2633.3        2246.21      
 1926.97       1659.57       1412.93       1231.07       1062.62       903.679       606.788      
 338.347       258.581       268.01        259.327       254.667       250.158       246.894      
 246.43        254.668       324.074       589.395       962.897       1150.75       1158.58      
 875.955       236.056      -625.663      -1472.06      -2174.64      -2674.77      -3042.2       
-3328.44      -3558.58      -3999.84      -4417.19      -4559.13      

70 XR1 0 A 2040.0 0 32 2 25 
D5 0.514375 0.212325 0.082575 111.252 -90 R3 111.254 
 3765.4        3763.45       3763.16       3751.89       3758.71       3761.89       3756.69      
 3769.23       3843.49       4027.51       4257.3        4460.67       4668.52       4809.41      
 4923.61       5016.17       5085.37       5134.12       5151.33       5154.01       5157.35      
 5154.49       5152.87       5149.78       5140.05       5122.99       5089.71       5008.42      
 4824.91       4488.49       4098.92       3640.58       3170.35       2753.25       2403.5       
 2073.77       1778.64       1539.62       1330.2        1142.23       976.784       668.254      
 365.522       271.956       272.805       275.296       276.598       278.775       280.819      
 283.041       288.004       362.054       650.502       1077.53       1398.38       1565.56      
 1458.33       1003          260.211      -531.766      -1222.42      -1725.89      -2105.92      
-2402.04      -2661.96      -3132.73      -3588.48      -3752.61      

80 XR1 0 A 2040.0 0 32 2 37 
D5 0.513915 0.207185 0.09816 115.351 -90 R3 115.351 
 2912.15       2913.13       2911.08       2896.28       2877.2        2880.35       2894.21      
 2913.16       2974.06       3152.37       3411.67       3685.08       3941.97       4164.55      
 4343.93       4497.75       4622.25       4728.66       4819.84       4900.52       4952.63      
 4966.74       4976.6        4982.62       4989.64       4996.21       5004.67       4992.81      
 4867.09       4555.63       4174.06       3767.5        3331.99       2911.25       2541.36      
 2190.32       1885.34       1650.8        1433.35       1239.23       1066.14       716.042      
 399.492       299.868       293.089       292.328       290.916       289.551       285.641      
 283.593       289.524       360.583       648.373       1160.11       1626.91       1958.88      
 2068.11       1777.81       1151.42       423.967      -232.964      -740.648      -1135.16      
-1439.46      -1704.75      -2223.82      -2715.4       -2885.8       

90 XR1 0 A 2040.0 0 32 2 49 
D5 0.514295 0.208405 0.09037 113.443 -90 R3 113.443 
 2199.44       2203.43       2201.76       2197.02       2208.32       2211.39       2209.19      
 2218.05       2268.53       2449.6        2719.96       3015.91       3294.78       3548.52      
 3788.65       4000.19       4194.95       4370.95       4525.49       4657.74       4745.74      
 4778.86       4792.8        4818.33       4848.28       4884.89       4925.27       4940.21      
 4851.19       4611.72       4283.39       3874.53       3457.98       3059.68       2670.46      
 2320.08       2038.97       1776.5        1539.47       1347.83       1155.62       776.687      
 432.58        318.391       307.386       303.022       301.802       300.321       298.321      
 297.067       315.094       401.129       697.457       1234.31       1790.45       2264.1       
 2539.78       2403.83       1924.14       1255.79       612.155       108.802      -291.771      
-618.528      -906.681      -1470.82      -2007.42      -2193.01      

100 XR1 0 A 2040.0 0 32 2 61 
D5 0.51175 0.21135 0.089135 112.867 -90 R3 112.867 
 1552.61       1568.99       1572.3        1573.3        1584.36       1597.28       1595.46      
 1577.12       1622.88       1817.38       2116.76       2440.14       2766.8        3081.62      
 3354.34       3605.2        3853.69       4077          4269.07       4453.32       4590.38      
 4639.62       4663.21       4700.79       4752.58       4810.83       4877.76       4929.04      
 4888.71       4706.8        4402.01       4041.89       3643.11       3239.66       2863.05      
 2508.93       2204.51       1937.93       1707.23       1477.88       1271.05       854.097      
 465           356.266       357.828       359.002       361.689       361.735       360.627      
 356.929       358.316       414.532       713.672       1308.08       1970.16       2578.92      
 2993.54       3035.97       2650.78       2054.69       1442.29       942.2         520.028      
 167.834      -130.921      -745.405      -1338.16      -1540.45      

110 XR1 0 A 2040.0 0 32 2 73 
D5 0.515795 0.210775 0.08656 112.327 -90 R3 112.327 
 978.873       976.509       986.069       984.224       968.372       970.184       980.918      
 988.889       1028.88       1202.34       1513.16       1860.16       2197.55       2535.78      
 2864.62       3165.91       3451.69       3720.09       3969.59       4188.11       4344.85      
 4408.82       4439.48       4488.14       4557.02       4639.45       4737.22       4835.73      
 4850.27       4720.89       4486.58       4141.87       3792.21       3404.01       3031.73      
 2674.65       2367.9        2087.44       1843.96       1613.03       1389.97       943.017      
 518.502       380.351       378.81        381.08        382.859       387.859       390.246      
 392.027       390.986       446.009       741.583       1348.14       2073.85       2759.9       
 3325.39       3527.52       3292.3        2780.93       2204.28       1697.93       1273.33      
 914.586       585.449      -81.5238      -734.306      -964.35       

120 XR3 0 A 2040.0 0 32 2 91 
D5 0.51191 0.210065 0.091855 113.618 -90 R3 113.618 
 393.467       390.513       388.088       395.637       393.806       394.948       393.438      
 392.832       434.664       601.33        901.104       1259.89       1627.58       1988.2       
 2347.34       2675.97       2983.86       3287.75       3581.46       3863.97       4057.01      
 4133.07       4170.74       4234.52       4323.29       4436.19       4572.15       4707.63      
 4773.07       4690.18       4512.26       4246.29       3904.96       3552.45       3192.1       
 2866.76       2553.03       2281.83       2009.85       1763.36       1518.23       1021.42      
 559.382       409.644       421.545       420.178       420.267       419.045       421.466      
 423.138       425.056       474.721       746.9         1365.26       2133.89       2924.84      
 3656.13       4020.81       3927.83       3502.42       2972.25       2467.11       2053.61      
 1670.07       1312.06       588.924      -120.474      -365.997      

130 XR2 0 A 2040.0 0 32 2 98 
D5 0.51023 0.218397 0.07633 109.264 -90 R3 109.264 
-75.3822      -77.4484      -69.2054      -70.0962      -64.9756      -50.0629      -50.5089      
-52.7793      -14.9232       147.318       439.251       810.111       1197.68       1576.63      
 1951.81       2309.27       2665.4        3006.46       3326.34       3632.24       3848.6       
 3929.44       3972.94       4042.46       4139.87       4264.99       4420.13       4588.38      
 4706.03       4678.61       4552.94       4328.97       4031.71       3709.8        3375.98      
 3056.82       2734.42       2447.38       2171.04       1921.86       1660.12       1123.4       
 617.884       456.052       434.092       435.538       438.781       439.812       442.045      
 444.571       458.662       523.175       786.361       1385.11       2176.25       3042.36      
 3857.44       4360.14       4402.68       4101.42       3617.47       3122.43       2704.36      
 2297.41       1917.95       1126.38       348.963       83.7833      

140 XR3 0 A 2040.0 0 32 2 115 
D5 0.514 0.21086 0.080085 110.797 -90 R3 110.797 
-581.336      -590.809      -581.913      -578.017      -562.266      -560.562      -563.875      
-555.663      -517.085      -367.31       -69.9765       290.259       668.562       1076.46      
 1477.89       1858.52       2233.85       2596.08       2947.66       3284.93       3542.25      
 3644.42       3693.24       3777.26       3886.85       4021.4        4198.42       4406.46      
 4556.15       4591.87       4524.9        4369.79       4135.96       3848.47       3555.29      
 3223.3        2926.16       2634.15       2363.85       2087.98       1802.41       1224.07      
 666.277       487.565       488.503       485.931       486.151       483.183       478.636      
 474.714       480.992       530.385       783.174       1397.91       2228.46       3160.05      
 4095.08       4735.26       4920.57       4701.73       4278.74       3825.42       3399.83      
 2983.16       2577.4        1724.89       886.223       595.108      

150 XR1 0 A 2040.0 0 32 2 121 
D5 0.52096 0.212415 0.085715 111.976 -90 R3 111.976 
-633.755      -638.678      -652.002      -655.194      -642.379      -638.488      -624.652      
-615.466      -579.581      -434.39       -153.343       201.274       574.542       949.059      
 1340.7        1725.27       2106.73       2492.25       2870.53       3229.42       3492.67      
 3593.52       3648.05       3730.92       3841.31       3982.11       4166.77       4393.8       
 4592.6        4686.21       4654.79       4525.4        4337.57       4071.91       3786.97      
 3492.77       3173.25       2892.42       2598.68       2295.58       2001.23       1355.71      
 732.847       525.884       517.193       513.623       513.382       511.598       503.155      
 495.381       497.523       539.583       778.745       1356.85       2179.01       3150.51      
 4151.81       4872.63       5151.72       5009.5        4625.91       4186.25       3732.48      
 3294.65       2852.35       1921.34       991.79        680.22       

160 XR3 0 A 2040.0 0 32 2 139 
D5 0.516005 0.2113 0.084115 111.707 -90 R3 111.707 
-1042.69      -1044.11      -1048.42      -1030.5       -1022.2       -1036.69      -1039.03      
-1039.55      -1017.74      -888.66       -625.12       -291.121       91.1995       482.509      
 892.577       1315.68       1724.79       2116.6        2501.71       2894.57       3187.93      
 3301.31       3359.67       3449.8        3574.82       3728.85       3931.41       4188.22      
 4442.54       4565.4        4605.66       4574.99       4433.58       4220.5        3963.63      
 3683.09       3389.1        3085.51       2791.05       2492.41       2172.22       1474.42      
 797.225       576.194       569.117       568.192       571.033       570.404       571.832      
 571.541       574.235       615.95        816.46        1351.28       2191.3        3181.12      
 4272.78       5134.2        5575.08       5554.44       5247.52       4819.21       4362.26      
 3909.03       3446.43       2435.89       1424.93       1068.31      

170 XR1 0 A 2040.0 0 32 2 145 
D5 0.514 0.21097 0.089765 113.049 -90 R3 113.049 
-1296.53      -1277.8       -1257.9       -1252.21      -1261.1       -1264.4       -1255.98      
-1251.53      -1224.26      -1102.55      -863.959      -569.292      -205.933       208.554      
 634.486       1052.89       1465.07       1869.24       2276.46       2689.7        2987.89      
 3098.2        3152.16       3243.62       3371.08       3537.34       3764.27       4053.53      
 4337.52       4534.98       4652.11       4649.66       4573.13       4409.29       4187.35      
 3912.7        3634.33       3337.46       3029.42       2715.84       2378.19       1627.89      
 885.626       637.884       619.148       617.887       618.233       616.322       611.926      
 605.835       602.821       638.583       838.847       1362.26       2167.03       3202.26      
 4341.45       5323.31       5871.26       5941.83       5701.18       5306.34       4849.26      
 4393.83       3905.86       2808.24       1699.57       1320.9       

180 XR1 0 A 2040.0 0 32 2 157 
D5 0.513225 0.219575 0.018835 94.9028 -90 R3 94.9028 
-1449.91      -1453.74      -1456.63      -1463.66      -1455.41      -1445.23      -1440.56      
-1437.07      -1429.58      -1320.61      -1078.71      -753.099      -373.174       33.8214      
 451.438       879.507       1301.54       1720.52       2138.62       2561.45       2880.83      
 3006.71       3072.37       3180.66       3324.46       3504.87       3738.53       4038.31      
 4352.14       4594.45       4735.06       4782.09       4736.46       4623.6        4444.62      
 4168.02       3895.48       3597          3272.46       2940.49       2586.75       1768.25      
 957.609       706.572       689.959       688.158       687.343       687.073       685.228      
 685.411       686.138       714.359       889.556       1396.33       2235.13       3286.15      
 4496.03       5554.21       6192.51       6365.54       6162.58       5787.43       5330.49      
 4842.21       4319.39       3134.77       1930.03       1502.71      

190 XR1 0 A 2040.0 0 32 2 169 
D5 0.513585 0.20814 0.091605 113.755 -90 R3 113.755 
-1730.3       -1723.43      -1713.51      -1716.74      -1724.27      -1730.91      -1732.24      
-1723.32      -1702.95      -1592.53      -1360.47      -1050.74      -691.334      -280.318      
 137.052       551.826       986.335       1441.44       1884.85       2327.42       2668.65      
 2807.07       2871.11       2984.94       3139.52       3331.02       3577.64       3893.52      
 4231.71       4517.4        4722.79       4842.59       4848.29       4782.27       4608.59      
 4390.6        4134.73       3846.12       3527.48       3175.11       2789.12       1922.94      
 1040.17       754.372       735.393       735.944       738.251       740.578       745.974      
 751.648       755.835       779.351       935.771       1410.78       2228.04       3302.69      
 4566.61       5743.21       6509.42       6774.99       6651.59       6311.99       5857.49      
 5362.93       4801.83       3532.96       2226.7        1769.32      

200 XR3 0 A 2040.0 0 32 2 187 
D5 0.515677 0.212657 0.0804667 110.726 -90 R3 110.726 
-1856.65      -1854.34      -1843.15      -1829.44      -1821.32      -1824.19      -1820.53      
-1810.07      -1784.21      -1690.29      -1476.59      -1171.46      -796.766      -383.145      
 41.4168       492.331       942.261       1400.98       1854.92       2313.59       2656.81      
 2795.7        2862.08       2975.26       3131.48       3329.02       3589.51       3917.08      
 4278.11       4628.47       4875.84       5028.14       5072.4        5015.17       4881.77      
 4673.97       4423.13       4137.12       3805.45       3449.69       3042.58       2103.15      
 1132.36       825.094       800.875       798.784       800.165       797.95        795.631      
 795.725       799.784       823.49        969.859       1441.42       2270.56       3378.35      
 4712.37       5955.5        6801.74       7148.57       7057.42       6732.33       6271.55      
 5747.43       5165.52       3792.48       2372.28       1882.06      

210 XR3 0 A 2040.0 0 32 2 205 
D5 0.512535 0.13822 0.18376 143.051 -90 R3 143.05 
-2126.64      -2126.41      -2125.66      -2125.7       -2117.66      -2102.96      -2111.53      
-2104.9       -2080.66      -2001.21      -1787.16      -1474.11      -1105.89      -694.935      
-259.15        204.325       679.576       1151.49       1629.94       2116.84       2469.36      
 2611.89       2683.74       2800.85       2970.43       3185.42       3463.43       3810.46      
 4211.73       4590.2        4871.4        5083.47       5169.41       5161.31       5055.73      
 4887.03       4640.94       4370.66       4042.79       3666.19       3257.63       2256.87      
 1225.29       883.037       872.524       865.806       860.725       857.216       850.864      
 848.868       852.895       875.073       1012.3        1483.29       2324.86       3467.05      
 4858.99       6199.03       7169.9        7601.85       7575.61       7279.23       6830.65      
 6307.9        5695.97       4236.63       2707.57       2171.92      

220 XR1 0 A 2040.0 0 32 2 211 
D5 0.513057 0.21556 0.0821967 110.873 -90 R3 110.874 
-2109.17      -2103.67      -2096.46      -2091.38      -2076.58      -2070.3       -2071.29      
-2068.67      -2042.89      -1956.14      -1765.49      -1465.79      -1083.06      -659.203      
-221.988       247.166       732.533       1213.43       1708.07       2219.16       2596.85      
 2746.12       2819.09       2935.76       3101.1        3314.46       3607.39       3980.64      
 4404.81       4790.03       5094.95       5306.58       5414.4        5421.24       5340.84      
 5177.11       4949.67       4660.13       4329.94       3938.46       3497.52       2437.3       
 1320.43       940.453       929.042       932.302       934.831       933.532       932.757      
 929.344       925.07        937.153       1075.36       1550.31       2391.06       3557.71      
 4999.86       6397.25       7394.9        7862.94       7866.4        7578.88       7127.79      
 6568.21       5927.49       4373.86       2731.55       2163.07      

230 XR1 0 A 2040.0 0 32 2 229 
D5 0.512685 0.21372 0.079925 110.505 -90 R3 110.505 
-2099.76      -2096.97      -2096.5       -2106.71      -2095.43      -2081.16      -2080.58      
-2076.57      -2052.71      -1964.01      -1743.73      -1426.62      -1049.31      -630.93       
-163.738       317.499       813.198       1318.23       1818.78       2328.58       2710.75      
 2860.21       2935.98       3064.45       3242.03       3469.06       3768.04       4147.91      
 4566.9        4972.81       5295.81       5541.85       5669.74       5689.69       5603.14      
 5449.95       5231.26       4941.61       4601.54       4210.04       3754.19       2635.07      
 1449.79       1049.23       1023.48       1024.75       1022.41       1023.67       1021.57      
 1023.53       1030.14       1047.62       1176.94       1643.4        2512.64       3700.18      
 5171.58       6630.25       7662.71       8176.04       8190.48       7897.35       7441.96      
 6854.97       6191.08       4550.12       2784.43       2148.44      

240 XR1 0 A 2040.0 0 32 2 241 
D5 0.51106 0.20895 0.102915 116.222 -90 R3 116.222 
-2168.25      -2162.74      -2144.75      -2123.28      -2114.36      -2108.53      -2108.04      
-2115.44      -2103.08      -2007.53      -1793.1       -1472.08      -1075.97      -638.576      
-177.852       286.746       773.051       1290.17       1808.95       2323.29       2711.88      
 2868.19       2946.39       3076.9        3256.8        3487.51       3786.26       4166.71      
 4600.88       5015.77       5376.36       5617.25       5776          5797.7        5740.11      
 5589.67       5379.47       5107.54       4762.95       4363.96       3895.24       2750.57      
 1509.99       1083.84       1076.48       1075.5        1071.94       1066.9        1062.37      
 1053.45       1037.18       1045.95       1205.98       1690.98       2568.86       3775.77      
 5260.93       6727.92       7806.67       8336.89       8374.27       8112.58       7673.31      
 7087.46       6390.75       4697.43       2860.48       2205.15      

250 XR3 0 A 2040.0 0 32 2 259 
D5 0.5079 0.218607 0.0824033 110.654 -90 R3 110.654 
-2044.15      -2034.29      -2031.35      -2023.19      -2014.69      -2014.75      -2021.8       
-2019.65      -1986.08      -1891.73      -1669.83      -1341.04      -963.119      -534.405      
-68.8443       411.568       914.713       1428.1        1935.72       2442.19       2828.35      
 2981.12       3057.81       3184.22       3356.06       3575.68       3865.9        4251.51      
 4697.86       5127.95       5475.91       5702.53       5843.02       5885.81       5827.23      
 5690.01       5470.48       5214.71       4883.02       4486.74       4017.67       2864.36      
 1584.75       1131.8        1121.41       1117.78       1118.63       1117.29       1112.06      
 1111.03       1111.76       1123.85       1267.9        1764.98       2629.4        3851.44      
 5322.09       6769.08       7829.8        8361.31       8406.74       8145.99       7697.04      
 7101.6        6415.16       4675.91       2775.72       2108.47      

260 XR1 0 A 2040.0 0 32 2 265 
D5 0.521535 0.213565 0.08091 110.75 -90 R3 110.748 
-1943.91      -1948.21      -1938.42      -1922.32      -1917.99      -1906.43      -1911.73      
-1916.93      -1892.83      -1854.82      -1739.94      -1519.83      -1240.67      -920.042      
-552.819      -143.658       296.463       739.505       1175.59       1624.3        1969         
 2104.09       2172.95       2284.36       2443.73       2648.73       2927.86       3308.74      
 3765.15       4210.74       4622.6        4975          5188.97       5311.39       5335.1       
 5257.79       5117.58       4892.76       4615.24       4275.07       3850.03       2776.06      
 1540.31       1098.01       1077.39       1077.98       1078.7        1079.64       1080.27      
 1076.15       1067.19       1066.05       1117.55       1387          2042.95       3067.33      
 4419.19       5850.1        7012.41       7636.05       7792.91       7621.96       7241.11      
 6736.97       6110.5        4485.37       2657.16       1987.53      

265 XR3 0 A 2040.0 0 32 2 295 
D5 0.52485 0.217645 0.087435 111.887 -90 R3 111.887 
-1905.49      -1903.72      -1895.69      -1898.64      -1893.42      -1875.53      -1860.68      
-1846.27      -1840.6       -1823.66      -1736.71      -1570.35      -1338.86      -1057.49      
-716.034      -345.04        46.6027       445.081       844.647       1270.01       1603.26      
 1730.22       1798.18       1905.58       2056.6        2251.48       2513.73       2844.74      
 3253.55       3741.93       4167.39       4552.4        4807.73       4968.58       5006.89      
 4954.18       4829.12       4652.07       4396.55       4091.21       3723.45       2702.49      
 1517.93       1090.62       1096.49       1092.59       1091.56       1087.61       1079.71      
 1076.31       1066.65       1055.64       1089.31       1312.74       1864.57       2766.94      
 4024.19       5403.46       6561.04       7232.33       7422.68       7289.78       6962.78      
 6488.09       5908.07       4368.79       2602.44       1960.17      

270 XR3 0 A 2040.0 0 32 2 283 
D5 0.52159 0.21078 0.08162 111.167 -90 R3 111.167 
-1974.54      -1973.4       -1970.25      -1957.36      -1954.77      -1958.48      -1961.73      
-1956.06      -1948.03      -1931.06      -1900.49      -1832.06      -1718.34      -1553.93      
-1359.59      -1132.46      -871.767      -576.386      -261.111       54.3223       308.363      
 415.662       467.505       557.103       684.897       846.535       1061.22       1340.78      
 1710.35       2175.77       2714.75       3189.27       3648.12       3988.81       4201.4       
 4284.26       4267.43       4158.19       3993.4        3751.4        3443.58       2565.21      
 1475.25       1065.9        1041.87       1044.75       1047.57       1050.38       1051.95      
 1051.49       1046.55       1044.23       1051.41       1111.01       1372.85       1960.7       
 2919.15       4178.3        5400.4        6330.28       6753.13       6785.24       6562.35      
 6187.05       5692.9        4315.08       2658.85       2032.15      

275 XR1 0 A 2040.0 0 32 2 301 
D5 0.51882 0.203125 0.066935 108.238 -90 R3 108.239 
-2290.27      -2277.55      -2261.09      -2238.45      -2234.37      -2245.06      -2231.51      
-2218.18      -2220.73      -2219.35      -2215.68      -2192.87      -2163.39      -2124.23      
-2060.6       -1972.06      -1856.8       -1718.88      -1564.52      -1390.14      -1253.06      
-1187.8       -1154.49      -1093.7       -1006.76      -903.812      -781.432      -607.25       
-340.753       44.9597       525.23        1140.09       1818.11       2449.16       2974.95      
 3306.19       3457.8        3477.84       3406.86       3261.06       3039.61       2375.86      
 1438.4        1065.88       1058.17       1052.13       1047.82       1043.62       1040.33      
 1037.72       1031.14       1017.49       1015.85       1046.56       1089.57       1286.9       
 1776.36       2632.47       3834.2        5062.53       5897.18       6234.86       6185.31      
 5933.41       5565.88       4412.24       2915          2321.03      

280 XR1 0 A 2040.0 0 32 2 313 
D5 0.51355 0.207615 0.074685 109.785 -90 R3 109.784 
-2510.68      -2494.01      -2468.46      -2472.54      -2498.91      -2511.22      -2489.1       
-2463.11      -2445.27      -2442.89      -2453.24      -2451.15      -2402.92      -2352.07      
-2297.15      -2203.27      -2090.84      -1985.62      -1849         -1689.17      -1570.68      
-1523.26      -1500.28      -1460.16      -1399.21      -1317.72      -1194.5       -1013.02      
-793.515      -515.899      -153.63        265.043       716.898       1188.05       1586.76      
 1903.75       2124.33       2268.22       2367.5        2424.39       2407.31       2034.15      
 1334.03       1028.48       1027.19       1028.75       1028.16       1024.58       1018.67      
 1013.56       1012.71       1010.72       999.784       1004.74       1090.5        1292.59      
 1684.74       2396.03       3259.79       4148.19       4769.25       5129.93       5276.04      
 5237.8        5102.15       4322.16       3085.17       2542.65      

285 XR3 0 A 2040.0 0 32 2 331 
D5 0.522215 0.21096 0.08424 111.768 -90 R3 111.768 
-2419.46      -2401.06      -2389.17      -2416.01      -2430.06      -2420.31      -2404.98      
-2415.35      -2416.04      -2420.57      -2415.21      -2395         -2341.72      -2273.84      
-2196.54      -2102.61      -2004.78      -1892.9       -1757.53      -1625.84      -1517.1       
-1471.74      -1450.34      -1410.08      -1357.62      -1286.43      -1182.71      -1039.22      
-853.834      -610.32       -318.888       4.74203       364.435       711.442       1017.75      
 1254.84       1475.52       1653.98       1804.31       1924.99       1993.1        1804.48      
 1240.01       965.796       945.547       946.056       944.094       945.007       944.568      
 940.472       931.987       920.49        929.785       953.169       1032.74       1256.55      
 1635.05       2217.17       2926.7        3614.09       4121.94       4411.08       4568.54      
 4618.59       4578.18       4025.58       2964.48       2479.71      

290 XR3 0 A 2040.0 0 32 2 343 
D5 0.521045 0.20772 0.08303 111.787 -90 R3 111.788 
-2349.49      -2351.91      -2346.52      -2341.44      -2336.35      -2332.76      -2332.83      
-2331.62      -2336         -2322.34      -2313.65      -2299.74      -2264.04      -2219.79      
-2163.3       -2100.7       -2032.16      -1940.79      -1829.16      -1702.92      -1585.18      
-1539.64      -1518.64      -1482.54      -1430.64      -1368.54      -1290.95      -1194.35      
-1043.78      -801.086      -519.19       -200.331       148.521       459.205       742.147      
 969.457       1151.77       1293.67       1433.76       1574.77       1671.66       1587.64      
 1123.34       879.114       884.28        883.007       882.883       884.39        886.531      
 890.171       887.048       878.155       866.793       882.964       925.944       1079.98      
 1440.17       1970.57       2622.59       3259.23       3713.92       3982.21       4103.11      
 4155.01       4150.22       3742.97       2832.76       2397.56      

300 XR5 0 A 2040.0 0 32 2 361 
D5 0.52377 0.203904 0.079744 111.36 -90 R3 111.361 
-2539.06      -2545.26      -2539.76      -2523.55      -2520.85      -2524.95      -2508.36      
-2490.77      -2501.48      -2513.46      -2505.74      -2498.9       -2483.79      -2467.53      
-2435.46      -2388.43      -2340.49      -2285.63      -2215.96      -2140.01      -2081.12      
-2060.34      -2051.6       -2035.23      -2015.06      -1982.31      -1930.68      -1851.59      
-1737.69      -1590.08      -1416.24      -1194.72      -963.655      -727.381      -507.234      
-309.343      -119.402       73.3908       269.333       463.646       638.804       823.875      
 729.266       632.129       645.309       643.705       642.829       637.39        633.103      
 624.41        618.078       615.648       617.624       631.994       660.295       734.997      
 931.015       1275.45       1701.84       2136.61       2506.26       2768.2        2973.13      
 3138.84       3261.19       3239.27       2824.4        2562.29      

310 XR3 0 A 2040.0 0 32 2 373 
D5 0.521905 0.194715 0.0888 114.515 -90 R3 114.516 
-2500.15      -2516.58      -2529.3       -2512.76      -2507.47      -2521.61      -2532.5       
-2518.32      -2516.25      -2503.3       -2496.17      -2488.28      -2478.16      -2473.88      
-2463.07      -2433.49      -2391.54      -2354.07      -2333.51      -2278.51      -2224.06      
-2205.21      -2194.25      -2179.78      -2161.96      -2142.19      -2121.3       -2090.28      
-2030.09      -1928.09      -1822.86      -1681.49      -1514.35      -1328.74      -1118.42      
-901.176      -666.598      -436.169      -227.777      -36.9781       146.277       406.425      
 483.117       448.355       429.061       417.405       415.554       410.593       413.967      
 425.575       445.029       455.448       448.711       450.468       461.697       524.064      
 641.307       838.527       1122.3        1452.43       1797.5        2121.9        2372.19      
 2581.53       2748.59       2865.97       2694.23       2534.27      

320 XR3 0 A 2040.0 0 32 2 385 
D5 0.524365 0.192425 0.08884 114.783 -90 R3 114.783 
-2657.24      -2655.88      -2656.51      -2653.24      -2648.78      -2647.89      -2640.26      
-2644.84      -2637.38      -2631.78      -2623.3       -2634.05      -2644.54      -2628.42      
-2604.31      -2566.84      -2534.02      -2502.88      -2451.46      -2405.94      -2373.55      
-2362.24      -2356.17      -2343.61      -2325.98      -2300.97      -2262.49      -2209.73      
-2131.63      -2014.89      -1898.67      -1763.44      -1558.68      -1333.5       -1067.07      
-797.159      -515.4        -284.369      -84.4988       83.2655       200.88        354.238      
 402.509       385.924       379.676       380.156       378.199       373.906       370.091      
 364.949       357.565       361.621       371.402       388.109       401.928       462.769      
 579.928       798.531       1123.08       1524.3        1953.47       2332.2        2623.1       
 2829.78       2949.8        2965.79       2785.91       2657.86      

330 XR3 0 A 2040.0 0 32 2 397 
D5 0.524085 0.184155 0.09653 117.662 -90 R3 117.662 
-2839.02      -2848.91      -2826.1       -2802.49      -2803.67      -2809.41      -2808.18      
-2809.47      -2812.57      -2824.42      -2812.26      -2794.84      -2810.04      -2821.14      
-2802.72      -2771.37      -2729.3       -2687.06      -2660.66      -2635.4       -2618.81      
-2610.62      -2605.13      -2595.6       -2577.09      -2546.81      -2504.96      -2458.4       
-2413.69      -2323.26      -2184.97      -2020.75      -1818.66      -1563.4       -1282.56      
-983.476      -677.161      -373.107      -124.492       68.3724       175.385       233.674      
 282.945       299.169       310.629       303.432       301.324       301.343       302.216      
 309.088       316.68        303.732       287.505       299.456       307.349       355.109      
 476.706       672.921       985.096       1408.52       1868.81       2314.96       2688.45      
 2958.9        3105.62       3086.04       2935.11       2849.32      

340 XR3 0 A 2040.0 0 32 2 409 
D5 0.525315 0.184975 0.090505 116.072 -90 R3 116.071 
-2681.41      -2673.57      -2680.28      -2675.62      -2668.65      -2678.39      -2689.27      
-2694.31      -2695.28      -2694.67      -2686.61      -2677.94      -2674.82      -2656.94      
-2642.03      -2639.97      -2610.77      -2563.84      -2534.37      -2489.57      -2447.09      
-2433.55      -2425.13      -2416.87      -2405.91      -2382.9       -2343.58      -2295.41      
-2231.26      -2133.13      -2029.83      -1899.83      -1728.39      -1526.4       -1322.24      
-1087.46      -854.833      -604.261      -392.462      -216.093      -91.0271       53.1553      
 179.016       214.573       227.728       232.382       234.969       229.573       217.55       
 202.289       198.711       213.669       213.777       218.192       241.374       309.509      
 413.194       594.931       899.463       1247.17       1629.31       1964.44       2279.66      
 2519.77       2677.15       2772.9        2744.72       2692.42      

350 XR3 0 A 2040.0 0 32 2 421 
D5 0.526665 0.171735 0.10742 122.026 -90 R3 122.026 
-2472.97      -2469.34      -2470.12      -2470.72      -2474.53      -2473.59      -2463.34      
-2466.81      -2467.77      -2471         -2466.86      -2477.25      -2474.56      -2467.89      
-2459.44      -2449.01      -2443.13      -2438.52      -2426.97      -2410.57      -2395.64      
-2389.92      -2384.83      -2376.99      -2365.8       -2349.37      -2332.61      -2326.55      
-2311.94      -2251.09      -2176.54      -2079.78      -1948.13      -1775.25      -1590.23      
-1381.32      -1144.26      -916.26       -709.654      -528.481      -403.046      -193.962      
 15.3474       82.7933       91.2897       98.1348       100.603       107.653       111.945      
 110.827       96.7917       77.3183       82.4372       96.0256       99.0753       110.472      
 141.039       246.89        439.834       723.59        1051.97       1382.87       1680.04      
 1939.45       2116.7        2330.11       2461.77       2471.11      

355 XR3 0 A 2040.0 0 32 2 445 
D5 0.52655 0.17037 0.10852 122.495 -90 R3 122.495 
-2335.13      -2316.09      -2315.64      -2328.91      -2318.03      -2315.63      -2324.68      
-2332.12      -2328.79      -2328.96      -2343.26      -2343.98      -2335.1       -2319.93      
-2326.54      -2322.96      -2306.55      -2297.14      -2296.09      -2288.53      -2277.42      
-2271.65      -2270.54      -2265.21      -2259.72      -2253.94      -2250.39      -2243.61      
-2215.91      -2171.43      -2123.84      -2035.81      -1942.65      -1790.85      -1625.94      
-1431.27      -1213.51      -1000.93      -815.567      -661.819      -533.583      -337.081      
-100.385      -13.6855      -5.23363      -8.01429      -3.71176      -6.63944      -10.5361      
-22.7332      -32.2108      -29.4721      -18.8803      -7.4257        22.2565       6.12176      
 32.895        111.146       267.452       504.088       800.793       1109.85       1402.87      
 1637.04       1813.74       2059.55       2265.04       2330.46      

360 XR3 0 A 2040.0 0 32 2 433 
D5 0.527575 0.16834 0.110835 123.361 -90 R3 123.361 
-2117.54      -2124.41      -2125.2       -2117.58      -2111.31      -2107.33      -2099.3       
-2097.89      -2104         -2105.33      -2116.86      -2128.97      -2142.03      -2139.01      
-2137.51      -2136.49      -2122.42      -2105.87      -2097.84      -2093.9       -2091.26      
-2089.44      -2089.34      -2086.7       -2080.07      -2072.14      -2063.42      -2046.52      
-2024.76      -2000.46      -1951.19      -1885.35      -1784.94      -1666.32      -1525.74      
-1369.07      -1204.3       -1047.63      -895.765      -785.637      -712.323      -544.388      
-282.56       -160.403      -145.631      -147.79       -150.882      -152.385      -155.864      
-153.849      -148.99       -152.022      -161.031      -154.286      -158.669      -146.861      
-105.699      -51.7663       78.7075       299.617       549.728       813.609       1053.48      
 1266.63       1423.84       1675.44       1979.96       2101.45      

365 XR1 0 A 2040.0 0 32 2 451 
D5 0.526265 0.16955 0.107615 122.403 -90 R3 122.407 
-1804.15      -1803.2       -1819.52      -1824.32      -1810.72      -1808.18      -1827.93      
-1846.56      -1837.05      -1841.02      -1853.28      -1858.09      -1842.62      -1844.22      
-1855.3       -1862.02      -1854.27      -1829.56      -1826.77      -1838.51      -1829.14      
-1816.9       -1809.58      -1797.53      -1785.07      -1778.26      -1779         -1779.14      
-1773.1       -1747.27      -1673.45      -1656.81      -1579.52      -1519.75      -1433.11      
-1359.56      -1286.02      -1219.29      -1177.38      -1137.04      -1095.97      -886.107      
-517.523      -345.665      -323.997      -322.199      -320.863      -321.003      -318.852      
-320.425      -324.079      -323.731      -318.376      -332.769      -324.922      -314.02       
-286.135      -210.787      -108.605       42.34         207.469       349.464       482.748      
 602.021       726.439       1079.66       1593.03       1805.3       

370 XR1 0 A 2040.0 0 32 2 463 
D5 0.528415 0.16813 0.109025 122.962 -90 R3 122.966 
-1704.53      -1710.31      -1718.55      -1711.72      -1712.42      -1707.68      -1698.23      
-1708.9       -1727.27      -1731.76      -1722.74      -1718.45      -1722.9       -1732.92      
-1733.56      -1730.5       -1719.08      -1701.9       -1694.11      -1683.05      -1670.85      
-1664.52      -1662.46      -1659.3       -1654.39      -1651.99      -1647.4       -1645.18      
-1639.19      -1591.47      -1541.22      -1513.05      -1485.95      -1442.91      -1401.24      
-1340.94      -1320.21      -1303.41      -1274.22      -1261.16      -1215.2       -979.946      
-568.368      -380.686      -376.15       -373.85       -375.168      -372.09       -368.783      
-371.018      -377.429      -384.459      -382.951      -387.066      -365.802      -335.493      
-290.753      -220.489      -132.396      -13.0831       94.0031       188.081       269.755      
 366.199       474.412       864.265       1451.24       1688.04      

380 XR3 0 A 2040.0 0 32 2 481 
D5 0.528585 0.163055 0.115065 125.21 -90 R3 125.21 
-1563.3       -1552.31      -1557.74      -1575.86      -1581.03      -1580.13      -1583.25      
-1582.02      -1588.41      -1594.35      -1595.3       -1588.2       -1581.9       -1572.78      
-1562.52      -1553.11      -1544.15      -1536.87      -1513.2       -1486.02      -1481.79      
-1485.05      -1488.37      -1490.19      -1490.08      -1487.91      -1479.22      -1449.37      
-1413.52      -1397.82      -1364.08      -1350.82      -1328.74      -1298         -1282.9       
-1292.21      -1295.42      -1298.12      -1293.62      -1282.83      -1232.94      -978.738      
-563.889      -373.533      -360.892      -364.446      -362.782      -365.407      -369.741      
-382.756      -388.889      -374.517      -361.239      -360.376      -351.646      -303.259      
-256.07       -169.781      -97.4635      -25.3849       48.885        87.8773       137.807      
 203.154       311.367       729.756       1321.25       1555.96      

390 XR3 0 A 2040.0 0 32 2 493 
D5 0.529095 0.160215 0.11683 126.1 -90 R3 126.101 
-1531.25      -1523.28      -1523.17      -1530.98      -1525.65      -1525.9       -1533.06      
-1535.14      -1538.84      -1533.38      -1529.01      -1522         -1511.09      -1498.38      
-1495.08      -1494.24      -1491.48      -1470.62      -1453.45      -1431.88      -1414.62      
-1408.37      -1407.36      -1398.69      -1387.72      -1373.89      -1358.75      -1338.62      
-1318.27      -1304.67      -1277.73      -1250.19      -1224.56      -1221.59      -1203.32      
-1202.71      -1219.06      -1224.85      -1211.32      -1199.75      -1141.86      -881.963      
-491.494      -330.158      -333.462      -330.856      -325.473      -325.746      -321.32       
-317.617      -319.039      -323.055      -330.794      -310.385      -283.252      -240.373      
-151.388      -69.604       -11.7567       67.4253       116.774       141.188       175.501      
 243.082       354.092       760.844       1300.76       1512.68      

400 XR4 0 A 2040.0 0 32 2 506 
D5 0.52886 0.159493 0.118203 126.543 -90 R3 126.544 
-1458.73      -1468.29      -1472.85      -1469.92      -1475.83      -1475.9       -1470.1       
-1473.88      -1477.06      -1484.3       -1472.11      -1457.48      -1448.38      -1441.83      
-1422.31      -1414.96      -1402.56      -1388.51      -1385.67      -1362.03      -1337.93      
-1327.77      -1323.72      -1321.26      -1322.4       -1325.95      -1324.5       -1312.87      
-1300.73      -1277.59      -1236.85      -1227.94      -1199.86      -1176.31      -1167.05      
-1162.69      -1158.81      -1148.39      -1139.69      -1102.53      -1035.52      -785.331      
-426.651      -286.203      -275.381      -274.521      -276.733      -278.329      -283.762      
-287.43       -285.647      -281.116      -279.631      -253.24       -231.954      -202.588      
-144.242      -77.1132       5.88409       72.4099       124.595       145.325       201.628      
 273.337       386.484       769.058       1257.82       1445.72      

410 XR1 0 A 2040.0 0 32 2 511 
D5 0.52826 0.158875 0.12095 127.282 -90 R3 127.283 
-1392.77      -1378.31      -1389.27      -1386.9       -1369.56      -1370.15      -1388.28      
-1392.97      -1402.27      -1409.16      -1406.89      -1397.43      -1380.58      -1374.94      
-1371.2       -1351.44      -1345.07      -1332.65      -1324.95      -1314.01      -1296.67      
-1288.52      -1283.86      -1273.72      -1261.34      -1251.44      -1243.66      -1233.06      
-1206.45      -1180.12      -1168.03      -1152.54      -1118.23      -1115.39      -1097.03      
-1089.7       -1076.84      -1069.05      -1047.89      -1002.36      -925.895      -688.251      
-363.094      -247.52       -240.253      -238.396      -240.164      -240.508      -237.099      
-228.784      -220.108      -222.988      -240.653      -233.531      -205.156      -168.206      
-110.009      -40.4621       25.2165       75.7485       132.578       171.216       231.51       
 317.144       426.298       773.873       1209.7        1364.92      

420 XR3 0 A 2040.0 0 32 2 529 
D5 0.52458 0.163853 0.112207 124.403 -90 R3 124.405 
-1331.43      -1342.68      -1330.38      -1325.91      -1307.46      -1304.62      -1325.38      
-1345.48      -1346.56      -1338.8       -1340.76      -1348.91      -1342.29      -1324.69      
-1308.13      -1300.12      -1305.6       -1293.65      -1265.96      -1258.6       -1251         
-1245.99      -1243.71      -1239         -1234.95      -1234.13      -1230.05      -1222.29      
-1201.86      -1169.36      -1156.1       -1138.74      -1111.85      -1103.96      -1074.98      
-1053.29      -1025.56      -1010.21      -976.265      -920.906      -854.284      -622.265      
-333.118      -230.437      -214.303      -218.585      -221.16       -225.302      -229.76       
-231.314      -225.966      -211.729      -195.908      -211.046      -202.207      -181.003      
-144.682      -79.2563      -0.81517       65.6699       119.199       169.671       232.003      
 317.345       428.894       766.456       1164.51       1305.31      

430 XR3 0 A 2040.0 0 32 2 541 
D5 0.52824 0.162115 0.11611 125.611 -90 R3 125.611 
-1253.56      -1252.54      -1258.46      -1255.1       -1261.21      -1263.77      -1260.71      
-1252.47      -1256.32      -1262.3       -1261.86      -1261.34      -1254.54      -1256.23      
-1251.86      -1243.05      -1233.94      -1213.74      -1202.85      -1204.74      -1203.79      
-1201.15      -1199.63      -1195.06      -1190.91      -1184.01      -1178.38      -1168.54      
-1150.88      -1135.29      -1134.17      -1100.7       -1065.35      -1037.09      -1014.46      
-992.024      -976.864      -955.064      -912.676      -856.633      -781.333      -562.75       
-300.273      -203.195      -180.998      -179.247      -180.394      -180.645      -185.793      
-194.512      -204.15       -208.41       -196.394      -180.998      -176.629      -176.733      
-142.45       -90.3489      -19.1792       38.2339       116.925       164.553       221.883      
 316.5         425.914       745.916       1113.62       1236.96      

440 XR3 0 A 2040.0 0 32 2 553 
D5 0.52852 0.158625 0.119565 127.008 -90 R3 127.008 
-1186.89      -1187.82      -1196         -1199.57      -1199.96      -1196.63      -1209.2       
-1220.56      -1206.81      -1204.6       -1216.81      -1219.23      -1200.35      -1198.12      
-1194.84      -1190.79      -1188.29      -1180.36      -1175.13      -1169.43      -1155.84      
-1155.1       -1153.11      -1149.77      -1146.93      -1142.62      -1140.82      -1132.04      
-1110.08      -1093.97      -1088.46      -1068.6       -1034.91      -1007.21      -978.423      
-936.838      -905.563      -873.946      -838.433      -772.572      -708.107      -516.539      
-278.888      -186.384      -176.563      -172.061      -173.062      -171.867      -168.347      
-165.053      -165.14       -165.182      -165.577      -167.824      -161.311      -151.854      
-112.037      -70.0504      -10.9168       59.356        118.35        179.872       258.771      
 356.665       451.803       743.085       1073.8        1190.53      

450 XR3 0 A 2040.0 0 32 2 565 
D5 0.528605 0.15927 0.117325 126.377 -90 R3 126.377 
-1137.95      -1136.48      -1141.1       -1149.32      -1157.85      -1166.08      -1160.69      
-1160.92      -1159.95      -1147.38      -1134.47      -1129.33      -1135.46      -1143.55      
-1145.12      -1142.49      -1142.27      -1135.36      -1123.07      -1123.83      -1126.77      
-1124.8       -1122.19      -1116.59      -1106.64      -1092.81      -1080.41      -1075.03      
-1067.04      -1053.85      -1042.88      -1039.95      -977.037      -937.406      -935.835      
-899.551      -865.644      -837.334      -789.956      -733.639      -667.394      -474.978      
-254.706      -188.393      -190.619      -183.089      -180.399      -174.979      -172.051      
-173.768      -177.618      -176.349      -175.149      -165.93       -165.944      -168.234      
-118.768      -76.2257      -30.1119       17.9186       107.912       172.388       245.467      
 327.454       418.213       704.801       1013.81       1130.5       

460 XR3 0 A 2040.0 0 32 2 577 
D5 0.52906 0.155495 0.11931 127.499 -90 R3 127.499 
-1090.29      -1100.31      -1092.58      -1083.12      -1080.03      -1085.58      -1091.08      
-1098.72      -1095.81      -1084.04      -1078.11      -1079.33      -1084.7       -1076.98      
-1072.14      -1069.2       -1071.33      -1055.37      -1050.41      -1056.85      -1052.82      
-1051.91      -1048.01      -1048.01      -1051         -1054.52      -1051.33      -1034.37      
-1018.6       -1006.03      -999.022      -970.261      -942.655      -931.095      -895.568      
-862.135      -828.603      -797.536      -748.333      -688.468      -625.574      -443.851      
-243.133      -166.352      -156.22       -152.488      -149.681      -146.467      -142.387      
-141.193      -145.326      -155.384      -165.921      -172.322      -166.292      -156.77       
-132.995      -77.5108      -34.585        30.822        94.4142       151.989       231.735      
 319.086       424.898       680.713       968.765       1074.39      

470 XR2 0 A 2040.0 0 32 2 584 
D5 0.529767 0.152807 0.11913 127.94 -90 R3 127.944 
-1021.93      -1026.99      -1024.29      -1023.17      -1031.47      -1040.15      -1053.31      
-1060.32      -1043.71      -1035.54      -1034.39      -1046.04      -1054.17      -1049.14      
-1030.25      -1017.42      -1014.25      -1021.08      -1011.75      -990.406      -986.007      
-984.904      -987.594      -987.873      -986.538      -986.74       -985.835      -971.178      
-950.032      -951.496      -937.222      -920.254      -902.428      -865.679      -845.075      
-816.979      -785.324      -736.194      -684.374      -639.255      -560.503      -404.588      
-224.271      -155.973      -148.812      -149.437      -149.231      -151.557      -151.57       
-149.883      -145.708      -142.598      -146.564      -150.983      -146.817      -112.354      
-101.764      -83.9184      -22.7988       43.1524       98.0611       154.422       240.151      
 316.034       413.663       648.913       918.75        1018.23      

480 XR1 0 A 2040.0 0 32 2 595 
D5 0.531125 0.148165 0.12189 129.443 -90 R3 129.443 
-965.109      -960.492      -959.009      -961.583      -965.184      -972.768      -963.645      
-959.015      -969.088      -973.713      -975.185      -984.107      -992.665      -987.741      
-989.877      -990.637      -988.226      -972.525      -965.383      -968.31       -961.011      
-956.864      -953.014      -949.336      -944.96       -941.26       -944.528      -944.195      
-929.955      -916.123      -894.971      -867.996      -862.74       -831.467      -801.299      
-770.422      -719.739      -697.345      -645.501      -585.584      -532.243      -377.619      
-205.223      -154.325      -148.935      -151.235      -149.514      -152.38       -154.764      
-152.738      -143.587      -139.288      -143.012      -145.04       -121.463      -117.384      
-90.0418      -57.7791      -20.6415       29.683        95.0084       153.472       228.316      
 306.204       398.547       634.12        878.462       970.933      

490 XR1 0 A 2040.0 0 32 2 607 
D5 0.53176 0.14338 0.12556 131.209 -90 R3 131.209 
-919.649      -926.859      -933.178      -941.767      -929.211      -925.932      -930.701      
-934.649      -938.607      -939.151      -940.694      -936.107      -934.458      -933.785      
-923.928      -911.235      -900.519      -895.372      -892.399      -889.417      -885.834      
-882.284      -884.44       -882.325      -880.872      -880.315      -881.972      -881.529      
-874.42       -863.679      -851.42       -838.534      -817.866      -785.937      -754.816      
-728.277      -685.025      -641.911      -610.771      -557.738      -494.219      -350.667      
-192.526      -125.284      -114.061      -116.307      -116.553      -116.552      -116.979      
-121.63       -128.081      -132.031      -132.331      -127.469      -126.048      -122.724      
-101.284      -64.8647      -27.855        28.8783       96.5193       151.969       214.953      
 298.997       394.625       601.397       832.393       919.766      

500 XR3 0 A 2040.0 0 32 2 625 
D5 0.53192 0.141685 0.126795 131.826 -90 R3 131.826 
-873.261      -877.339      -872.682      -872.095      -863.197      -849.652      -853.286      
-863.184      -875.186      -877.94       -873.683      -867.932      -863.215      -855.741      
-859.609      -856.472      -849.199      -837.085      -845.195      -844.096      -835.312      
-833.436      -829.785      -828.551      -823.617      -820.723      -821.708      -824.01       
-811.187      -802.251      -783.624      -767.353      -760.923      -732.809      -704.706      
-681.82       -642.191      -601.11       -557.625      -513.981      -448.041      -323.359      
-175.922      -118.199      -113.817      -117.343      -118.113      -121.636      -121.837      
-120.642      -116.223      -108.846      -115.609      -131.837      -107.488      -100.81       
-96.8234      -61.6931      -19.4329       28.1624       85.5733       145.963       206.458      
 289.991       374.911       568.219       779.773       849.344      

510 XR1 0 A 2040.0 0 32 2 631 
D5 0.532095 0.13932 0.129165 132.834 -90 R3 132.834 
-812.079      -817.253      -808.546      -795.722      -797.731      -800.757      -800.168      
-817.138      -833.29       -826.166      -813.499      -809.138      -804.917      -809.675      
-818.206      -818.635      -808.485      -803.285      -797.11       -799.286      -794.058      
-788.328      -788.696      -787.035      -783.934      -785.008      -785.378      -777.905      
-767.929      -763.66       -744.608      -734.332      -706.767      -679.436      -656.214      
-629.021      -596.734      -568.846      -524.14       -472.972      -419.845      -301.242      
-164.526      -116.107      -102.816      -103.929      -107.17       -111.128      -113.808      
-115.995      -116.821      -116.629      -110.521      -107.877      -112.623      -93.4233      
-86.9462      -63.805       -13.4377       29.8934       80.1253       151.035       202.944      
 273.875       353.084       538.598       733.638       810.011      

520 XR1 0 A 2040.0 0 32 2 643 
D5 0.532175 0.13814 0.12894 133.027 -90 R3 133.027 
-771.648      -768.882      -773.097      -760.448      -746.61       -757.07       -773.146      
-779.516      -783.247      -773.045      -758.242      -759.487      -761.056      -761.156      
-757.1        -749.705      -753.035      -770.135      -773.578      -762.463      -759.766      
-759.899      -759.964      -759.329      -759.247      -756.655      -749.827      -735.233      
-721.015      -717.227      -704.685      -693.092      -667.571      -644.785      -623.201      
-594.978      -558.745      -535.038      -494.194      -441.563      -389.772      -277.819      
-153.599      -104.878      -106.944      -105.621      -108.11       -106.272      -107.366      
-107.161      -107.228      -101.075      -113.16       -111.509      -106.712      -97.3693      
-77.3911      -53.32        -20.9285       22.6581       81.577        130.109       195.36       
 263.092       335.712       511.583       692.977       755.475      

530 XR1 0 A 2040.0 0 32 2 655 
D5 0.532495 0.13604 0.129485 133.586 -90 R3 133.586 
-720.173      -720.708      -716.545      -724.977      -725.733      -722.793      -723.202      
-729.108      -739.913      -733.088      -733.982      -735.596      -732.628      -726.948      
-724.961      -719.617      -716.617      -720.552      -727.642      -731.656      -722.416      
-717.301      -715.361      -710.823      -707.098      -700.391      -692.544      -688.696      
-695.472      -687.922      -666.638      -652.559      -634.279      -632.295      -600.427      
-571.369      -536.703      -501.585      -469.897      -424.31       -374.947      -259.298      
-145.92       -93.5224      -91.9698      -94.2768      -93.1298      -96.1866      -97.656       
-98.5511      -99.7707      -97.7731      -88.3974      -83.8971      -88.8584      -75.9395      
-74.6234      -39.6412      -8.16447       31.2352       79.9531       118.213       196.222      
 244.114       319.358       481.081       657.154       720.143      

540 XR1 0 A 2040.0 0 32 2 667 
D5 0.53284 0.1339 0.13115 134.406 -90 R3 134.406 
-678.447      -677.259      -679.834      -677.207      -689.285      -695.265      -681.77       
-663.56       -670.555      -687.864      -687.38       -676.514      -678.812      -673.079      
-672.336      -685.494      -683.389      -670.552      -655.444      -659.331      -663.59       
-660.997      -662.716      -659.259      -656.305      -652.819      -649.634      -644.219      
-643.014      -636.145      -620.103      -610.279      -597.299      -576.342      -559.775      
-533.916      -492.536      -450.498      -431.787      -391.776      -341.4        -238.535      
-136.466      -102.533      -86.0425      -90.0193      -95.2271      -99.0942      -106.28       
-105.671      -98.5628      -94.7239      -100.334      -87.6874      -89.0233      -75.3487      
-68.2157      -57.417       -16.9694       28.0156       65.7433       127.249       174.782      
 240.535       304.791       460.923       621.353       679.074      

550 XR1 0 A 2040.0 0 32 2 679 
D5 0.532815 0.133075 0.132145 134.799 -90 R3 134.799 
-631.408      -634.486      -650.426      -652.646      -646.137      -642.086      -655.062      
-668.417      -660.428      -648.688      -655.355      -655.367      -649.534      -652.205      
-653.433      -641.137      -634.432      -632.315      -641.195      -641.398      -629.358      
-624.308      -619.285      -614.006      -606.841      -605.054      -615.317      -625.017      
-607.287      -590.24       -585.672      -562.827      -548.453      -537.901      -511.513      
-487.587      -462.707      -436.001      -400.955      -357.091      -316.562      -216.535      
-122.071      -82.2422      -81.2861      -78.347       -76.0646      -69.3685      -63.5137      
-55.4226      -58.6157      -68.7477      -51.0406      -58.5449      -63.8501      -70.649       
-60.032       -42.1072      -15.4364       35.0031       81.748        126.161       177.059      
 231.654       295.23        437.458       585.391       632.835      

560 XR1 0 A 2040.0 0 32 2 691 
D5 0.53275 0.13238 0.13314 135.164 -90 R3 135.164 
-598.257      -593.748      -582.331      -588.385      -594.499      -587.582      -600.451      
-598.695      -598.734      -607.259      -599.64       -600.785      -594.545      -598.259      
-589.727      -585.874      -587.722      -593.281      -594.294      -582.733      -570.098      
-565.997      -565.851      -567.58       -571.346      -574.576      -573.384      -567.041      
-553.879      -555.51       -542.611      -519.839      -521.539      -503.521      -485.558      
-454.237      -424.194      -394.98       -363.856      -325.338      -283.831      -199.84       
-115.682      -89.9011      -87.1327      -87.866       -86.4882      -85.4292      -83.58        
-81.0322      -76.6476      -72.4906      -70.5127      -74.2735      -82.617       -56.0235      
-56.1432      -36.6128      -16.3668       26.208        72.1884       112.267       158.794      
 225.461       286.212       415.671       549.403       598.757      

570 XR3 0 A 2040.0 0 32 2 709 
D5 0.53322 0.133625 0.12975 134.157 -90 R3 134.157 
-544.091      -553.187      -566.045      -574.097      -573.752      -569.543      -566.101      
-574.332      -567.983      -564.712      -566.645      -566.494      -576.434      -574.6        
-566.783      -560.268      -563.976      -564.032      -561.152      -556.144      -550.706      
-551.36       -548.655      -551.191      -555.444      -561.214      -565.434      -553.617      
-535.256      -517.576      -523.145      -501.348      -491.284      -468.526      -450.004      
-426.894      -399.012      -370.126      -339.974      -308.841      -271.665      -186.048      
-106.456      -86.3839      -64.6091      -65.8335      -65.017       -66.5013      -68.3173      
-72.8508      -73.8947      -73.4247      -62.2054      -52.2723      -58.6478      -64.6211      
-49.8604      -32.1074      -2.61516       33.4871       74.2007       122.089       169.52       
 218.029       273.605       396.624       521.261       558.673      

580 XR1 0 A 2040.0 0 32 2 715 
D5 0.533485 0.13042 0.131065 135.142 -90 R3 135.142 
-535.909      -537.571      -545.147      -538.617      -540.781      -547.208      -548.335      
-539.445      -537.365      -555.826      -556.939      -545.212      -539.622      -535.295      
-532.694      -536.134      -528.609      -522.683      -526.511      -511.681      -501.585      
-502.647      -500.241      -501.606      -501.893      -502.374      -501.019      -505.141      
-506.219      -483.249      -467.914      -467.973      -465.613      -423.02       -420.645      
-399.87       -367.943      -353.005      -326.073      -295.42       -262.491      -178.285      
-103.105      -73.5216      -55.5192      -57.906       -57.7727      -58.5049      -58.0388      
-58.3145      -62.1467      -70.412       -80.3646      -81.525       -70.6144      -61.5166      
-39.2942      -14.8412       16.0566       33.0345       70.3331       108.817       160.896      
 206.798       257.797       374.515       495.901       535.705      

590 XR3 0 A 2040.0 0 32 2 733 
D5 0.5341 0.12524 0.13387 136.908 -90 R3 136.908 
-518.474      -512.587      -515.836      -516.535      -524.951      -536.011      -531.32       
-538.738      -543.318      -531.618      -534.84       -534.794      -525.492      -529.199      
-527.904      -514.705      -518.951      -526.439      -502.374      -495.625      -499.537      
-499.851      -498.131      -497.461      -492.194      -484.719      -482.453      -484.158      
-469.537      -467.789      -468.563      -458.072      -437.495      -416.892      -409.123      
-376.297      -351.161      -322.984      -308.308      -283.513      -238.683      -168.289      
-94.8886      -75.062       -62.9806      -61.5719      -57.7618      -53.3851      -48.788       
-45.7883      -46.5751      -51.1967      -67.1658      -88.4048      -65.9581      -64.121       
-41.0172      -18.6108       1.11665       35.4687       67.8413       106.671       160.24       
 208.843       256.341       358.247       470.33        519.507      

600 XR1 0 A 2040.0 0 32 2 739 
D5 0.534785 0.12111 0.135025 138.109 -90 R3 138.11 
-492.124      -502.279      -502.922      -501.557      -490.445      -490.584      -495.788      
-502.006      -498.283      -496.388      -479.836      -472.234      -491.42       -499.997      
-485.949      -463.076      -458.222      -470.234      -465.848      -471.047      -470.741      
-468.995      -470.655      -470.403      -470.032      -467.847      -460.408      -442.816      
-433.025      -429.418      -414.69       -423.982      -419.544      -397.819      -381.825      
-356.989      -336.085      -316.958      -286.778      -253.054      -226.488      -160.772      
-87.651       -75.2636      -82.5161      -78.9059      -76.1282      -76.3182      -78.7384      
-80.3007      -77.2476      -74.7761      -69.2249      -64.2064      -51.2474      -39.5681      
-44.7893      -16.6071      -0.0111964     45.3229       84.1621       122.963       153.185      
 191.938       246.458       341.61        441.675       493.736      

610 XR5 0 A 2040.0 0 32 2 763 
D5 0.535333 0.11689 0.136473 139.42 -90 R3 139.423 
-466.254      -457.38       -464.277      -464.109      -469.03       -460.454      -445.887      
-453.808      -467.961      -470.324      -473.221      -474.655      -469.035      -457.579      
-450.126      -443.145      -438.656      -441.518      -445.784      -447.51       -440.654      
-438.683      -438.688      -440.222      -441.615      -442.23       -440.168      -439.678      
-441.621      -433.747      -416.882      -388.985      -383.421      -371.114      -337.932      
-336.28       -304.092      -277.93       -258.175      -234.014      -206.015      -146.771      
-89.8581      -69.5392      -78.525       -75.7225      -74.3965      -73.3813      -69.5146      
-70.2607      -73.4495      -75.8067      -66.4935      -67.6444      -66.9949      -51.5397      
-41.6617      -11.0357       12.8641       50.9384       84.2818       120.986       154.559      
 188.461       235.578       326.3         427.128       462.721      

620 XR3 0 A 2040.0 0 32 2 775 
D5 0.535655 0.11423 0.1375 140.281 -90 R3 140.281 
-439.138      -446.503      -457.607      -451.051      -437.335      -435.886      -450.273      
-455.168      -452.089      -455.67       -460.542      -458.82       -441.53       -441.808      
-448.969      -443.932      -430.846      -415.107      -417.67       -426.377      -427.109      
-425.345      -424.026      -422.988      -419.531      -418.807      -422.251      -434.646      
-436.254      -415.739      -404.763      -387.477      -376.893      -367.287      -353.864      
-340.832      -306.983      -284.341      -257.48       -232.062      -195.436      -141.128      
-81.2496      -59.7808      -63.0844      -61.7932      -62.4257      -57.6909      -52.3649      
-47.2014      -46.7175      -47.6705      -57.2839      -65.1526      -63.03        -63.476       
-39.0322      -23.1492      -6.95666       15.8616       55.6506       89.9302       134.777      
 179.929       225.143       319.734       411.441       448.732      

630 XR1 0 A 2040.0 0 32 2 781 
D5 0.53612 0.11073 0.13848 141.354 -90 R3 141.354 
-428.873      -427.975      -431.369      -436.342      -438.154      -432.307      -425.962      
-425.121      -422.269      -419.712      -414.797      -413.08       -429.531      -440.513      
-428.661      -421.503      -433.108      -445.841      -434.007      -425.544      -425.139      
-426.069      -423.222      -423.003      -421.917      -419.27       -412.483      -401.639      
-399.083      -395.308      -400.757      -387.851      -365.283      -356.948      -356.069      
-332.023      -298.158      -281.191      -243.677      -219.202      -191.251      -138.119      
-82.9763      -59.9727      -65.9915      -69.0378      -70.776       -68.5795      -67.5957      
-66.1203      -60.7235      -57.8232      -59.8206      -62.3136      -57.7411      -46.8196      
-47.363       -34.8946      -18.513        10.6545       28.5111       75.9935       114.228      
 157.655       200.244       291.462       385.924       417.138      

640 XR5 0 A 2040.0 0 32 2 805 
D5 0.536613 0.105503 0.14085 143.165 -90 R3 143.165 
-406.694      -399.526      -406.001      -409.403      -400.068      -402.053      -408.189      
-416.422      -420.058      -414.155      -418.05       -419.406      -400.515      -392.385      
-399.154      -401.145      -402.701      -399.37       -397.815      -400.732      -401.508      
-398.017      -397.563      -398.255      -397.54       -400.611      -402.201      -401.383      
-403.422      -394.652      -379.745      -372.672      -352.833      -347.339      -341.007      
-314.767      -287.601      -258.968      -236.527      -208.91       -178.954      -127.047      
-71.9437      -57.5167      -54.5935      -58.9513      -60.1497      -60.56        -62.1059      
-61.0306      -57.1084      -50.5111      -37.0651      -45.4155      -63.0431      -56.2314      
-59.6821      -43.3726      -17.7969       16.8255       35.1575       78.207        118.831      
 161.605       199.315       287.043       369.712       403.484      

650 XR3 0 A 2040.0 0 32 2 817 
D5 0.53699 0.10512 0.139635 143.027 -90 R3 143.028 
-380.751      -381.052      -382.201      -379.241      -376.184      -374.749      -383.452      
-384.577      -380.935      -376.424      -379          -380.179      -389.976      -391.088      
-394.902      -399.425      -390.946      -382.707      -370.254      -376.763      -384.602      
-379.581      -379.534      -377.309      -377.327      -381.407      -386.14       -385.884      
-377.823      -370.539      -380.291      -368.336      -354.285      -319.608      -305.938      
-277.966      -269.835      -245.683      -221.537      -193.299      -167.698      -122.982      
-75.363       -60.4132      -30.7728      -35.5951      -39.3197      -43.3767      -49.365       
-51.2733      -51.1053      -45.8398      -38.8085      -46.3316      -51.6807      -43.5766      
-60.4375      -50.0954      -15.7701       4.49026       50.4109       91.0354       116.348      
 154.168       188.714       265.053       341.031       381.491      

660 XR1 0 A 2040.0 0 32 2 823 
D5 0.537385 0.10113 0.141 144.35 -90 R3 144.35 
-353.67       -368.63       -370.681      -368.316      -367.611      -359.325      -350.956      
-356.231      -357.199      -371.679      -384.028      -372.718      -371.035      -371.636      
-372.458      -376.98       -382.586      -377.827      -368.531      -364.925      -366.239      
-368.171      -368.512      -368.777      -366.879      -365.277      -362.501      -365.105      
-362.308      -355.273      -358.423      -337.606      -329.963      -319.245      -292.76       
-270.679      -255.042      -217.213      -202.735      -174.613      -150.654      -107.777      
-66.3233      -57.322       -67.8116      -69.8268      -66.7976      -64.9973      -62.3464      
-58.9755      -52.3554      -48.3961      -51.1289      -42.154       -50.3494      -44.9649      
-40.2485      -30.2307      -9.02881       8.92725       51.0601       70.0239       110.149      
 147.279       194.511       263.226       336.553       360.112      

665 XR1 0 A 2040.0 0 32 2 835 
D5 0.5375 0.098735 0.14248 145.279 -90 R3 145.28 
-365.423      -367.191      -368.436      -362.805      -348.118      -354.828      -356.535      
-351.888      -352.85       -360.454      -367.065      -359.893      -366.389      -361.369      
-354.981      -358.405      -365.495      -363.343      -357.424      -350.924      -338.884      
-337.062      -335.111      -333.37       -331.077      -330.666      -337.891      -343.841      
-345.729      -336.152      -350.871      -345.184      -345.403      -326.044      -278.854      
-268.672      -246.76       -226.992      -200.986      -183.092      -145.211      -102.813      
-60.5046      -47.8716      -29.8363      -28.4318      -29.6684      -34.1095      -42.3043      
-53.1807      -57.6941      -51.7337      -51.6441      -50.7213      -51.5036      -44.3329      
-40.2201      -25.5253      -6.1589        7.2635        42.3482       82.491        117.865      
 158.935       181.579       260.878       330.852       356.08       

50 YR1 0 A 2040.0 0 32 2 3 
D5 0.514737 0.20983 0.0832067 111.631 -90 R3 111.632 
 7825.72       7832.85       7824.19       7813.49       7827.31       7836.27       7824.78      
 7819.53       7807.11       7729.19       7504.36       7154.98       6741.7        6303.75      
 5847.77       5386.64       4914.46       4435.44       3956.39       3489.87       3132.32      
 2986.17       2916.75       2797.98       2636.3        2427.59       2149.68       1797.6       
 1419.33       1087.58       863.814       704.942       597.968       530.567       468.456      
 406.555       351.522       307.56        258.336       216.137       184.316       140.771      
 97.6233       80.9516       88.6207       90.6877       89.5778       90.4667       89.4832      
 88.8265       88.5154       72.7374      -69.7227      -615.17       -1555.93      -2752.62      
-4127.32      -5403.9       -6335.61      -6899.23      -7203.1       -7368.66      -7481.51      
-7550         -7612         -7702.91      -7790.73      -7824.6       

60 YR1 0 A 2040.0 0 32 2 15 
D5 0.521845 0.20639 0.086735 112.794 -90 R3 112.794 
 6993.32       6991.66       6995.66       7000.48       6995.88       6999.41       6999.85      
 6994.93       6999.57       6949.07       6770.54       6495.29       6158.87       5777.03      
 5384.73       4979.21       4561.61       4151.5        3732.72       3303.43       2988.24      
 2863.01       2801.78       2699.13       2556.45       2371.67       2129.09       1811.55      
 1435.92       1110.44       885.298       727.556       615.404       543.205       493.574      
 412.976       372.025       311.183       262.924       216.897       186.609       141.264      
 100.458       99.775        96.3497       92.803        89.9899       87.967        87.5722      
 85.0781       85.4125       85.427       -7.80283      -443.088      -1248.97      -2297.9       
-3520.25      -4691.27      -5547.69      -6075.52      -6364.39      -6535.02      -6640.41      
-6713.47      -6765.5       -6853.17      -6950.73      -6994.51      

70 YR1 0 A 2040.0 0 32 2 27 
D5 0.514393 0.2123 0.0825833 111.256 -90 R3 111.254 
 6085.79       6075.18       6078.06       6085.18       6092.94       6094.61       6084.62      
 6085.25       6107.17       6100.77       5975.64       5751.18       5486.5        5173.61      
 4831.15       4472.13       4115.53       3757.91       3396.55       3037.95       2774.29      
 2669.07       2618.54       2531.81       2410.74       2253.81       2041.03       1761.61      
 1431.51       1118.62       899.188       723.912       621.311       549.961       479.357      
 419.666       360.526       302.274       258.018       214.424       181.309       142.111      
 104.777       89.7841       105.522       106.509       106.706       103.121       99.4482      
 93.5975       97.7843       120.104       94.4541      -233.181      -897.588      -1807.9       
-2884.8       -3933.15      -4705         -5187.32      -5454.67      -5615.38      -5741.98      
-5803         -5868.01      -5954.79      -6048.08      -6088.29      

80 YR1 0 A 2040.0 0 32 2 39 
D5 0.513915 0.207185 0.09816 115.351 -90 R3 115.351 
 5474.4        5473.17       5465.17       5453.06       5443.58       5453.26       5455.67      
 5446.19       5468.87       5497.67       5433.12       5262.15       5023.09       4751.7       
 4464.85       4158.82       3837.56       3528.75       3216.97       2911.91       2686.21      
 2593.06       2545.57       2466.58       2348.46       2201.74       2004.61       1750.34      
 1444.2        1131.49       903.45        750.642       649.64        564.552       502.641      
 430.5         367.26        311.185       255.342       215.998       183.136       138.929      
 98.5709       78.7595       65.3292       65.3022       66.2841       66.0397       67.1043      
 67.9695       66.1828       78.6564       94.5974      -120.832      -695.494      -1498.13      
-2452.28      -3410.65      -4125.8       -4578.04      -4846.41      -5011.3       -5121.76      
-5201.45      -5260.27      -5340.71      -5429.36      -5463.96      

90 YR1 0 A 2040.0 0 32 2 51 
D5 0.514295 0.208405 0.09037 113.443 -90 R3 113.443 
 4580.82       4577.79       4582.78       4583.47       4587.01       4593.68       4602.08      
 4603.53       4617.79       4649.33       4642.31       4542.9        4372.75       4183.81      
 3976.37       3737.99       3499.72       3261.68       3013.09       2759.95       2570.65      
 2493.23       2453.08       2387.62       2297.55       2183.37       2037.16       1829.29      
 1540.98       1260.35       1027.64       859.16        738.109       646.972       561.304      
 495.762       417.371       346.678       286.579       236.784       197.071       147.372      
 96.4272       67.1315       69.1168       69.5101       73.7634       76.8066       79.0266      
 82.0583       85.0299       118.57        188.805       76.7714      -346.675      -959.808      
-1745.71      -2559.53      -3219.31      -3642.74      -3891.61      -4059.52      -4196.12      
-4273.29      -4344.46      -4438.11      -4529.91      -4564.14      

100 YR1 0 A 2040.0 0 32 2 63 
D5 0.51175 0.21135 0.089135 112.867 -90 R3 112.867 
 4000.58       4008.13       4013.98       4010.46       4012.31       4018.16       4035.55      
 4036.35       4045.48       4092.49       4117.4        4070.13       3961.08       3803.09      
 3629.89       3439.28       3234.4        3040.1        2829.56       2622.49       2468.37      
 2405.36       2371.21       2317.28       2238.63       2141.9        2011.77       1821.76      
 1546.44       1252.7        1026.1        882.75        760.671       663.392       566.089      
 485.492       403.955       341.857       279.902       224.613       189.983       140.795      
 98.3022       85.9265       84.075        80.7322       84.1245       84.881        87.0301      
 92.0693       97.7818       129.157       215.039       196.756      -121.723      -635.181      
-1339.97      -2072.39      -2671.11      -3075.2       -3336.98      -3498.5       -3626.71      
-3713.67      -3779.31      -3876.36      -3972.18      -4008.45      

110 YR3 0 A 2040.0 0 32 2 81 
D5 0.515795 0.210775 0.08656 112.327 -90 R3 112.327 
 3296.06       3291.76       3298.98       3304.45       3285.54       3276.57       3283.8       
 3290.93       3312.15       3392.32       3465.01       3455.64       3402.36       3319.33      
 3204.8        3078.98       2937.54       2788.85       2631.89       2468.67       2351.72      
 2308.32       2285.71       2248.18       2193.42       2126.51       2032.72       1887.09      
 1646.04       1367.22       1156.91       981.196       861.846       751.835       644.457      
 548.464       449.424       363.795       306.07        246.896       201.163       160.347      
 114.02        93.6347       97.0118       100.904       101.29        101.015       103.377      
 107.085       106.329       128.897       246.114       331.624       142.565      -236.479      
-767.661      -1378.08      -1917.64      -2303.82      -2554.29      -2734.29      -2872.52      
-2965.76      -3030.34      -3137.26      -3241.61      -3285.7       

120 YR1 0 A 2040.0 0 32 2 87 
D5 0.51191 0.210065 0.091855 113.618 -90 R3 113.618 
 2851.05       2853.78       2840.83       2830.03       2832.04       2832.43       2826.6       
 2830.47       2867.09       2960.42       3052.39       3088.71       3076.93       3044.4       
 2989.7        2897.84       2804.67       2715.59       2616.68       2503.39       2411.42      
 2372.65       2355.09       2328.88       2295.47       2246.35       2174.18       2052.65      
 1849.69       1578.8        1350.31       1162.64       1012.53       872.303       746.459      
 642.581       527.361       427.757       344.431       282.804       241.424       175.342      
 121.396       105.446       78.5454       74.5809       76.1476       74.5864       76.8926      
 83.0975       94.1387       135.041       278.149       426.343       359.404       104.823      
-302.921      -825.756      -1318.68      -1702.56      -1998.08      -2198.55      -2358.91      
-2468.24      -2549.71      -2670.03      -2785.73      -2830.28      

130 YR1 0 A 2040.0 0 32 2 99 
D5 0.510255 0.2184 0.076325 109.263 -90 R3 109.264 
 2183.99       2174.26       2169.6        2184.78       2184.68       2189.17       2191.11      
 2184.07       2206          2302.3        2422.59       2490.75       2525.65       2540.55      
 2519.99       2482.57       2443.1        2386.59       2324.79       2257.32       2193.63      
 2167.8        2152.61       2128.15       2100.15       2068.5        2020.05       1932.18      
 1773.92       1539.66       1338.26       1135.76       975.443       843.105       717.911      
 574.015       468.342       366.349       295.952       242.553       205.972       152.254      
 108.987       83.2978       84.4075       88.8384       91.111        93.3009       92.3635      
 90.5415       87.5052       116.052       266.129       461.683       490.061       352.362      
 63.5348      -356.615      -793.721      -1137.05      -1417.07      -1608.92      -1759.8       
-1861.8       -1941.17      -2041.69      -2140.98      -2185.2       

140 YR1 0 A 2040.0 0 32 2 111 
D5 0.514 0.21086 0.080085 110.797 -90 R3 110.797 
 1743.46       1739.61       1738.48       1732.27       1726.36       1730.33       1740.47      
 1740.9        1768.97       1859.69       1983.52       2083.82       2132.48       2169         
 2198.82       2200.97       2182.84       2170.49       2150.19       2117.14       2084.55      
 2069.44       2061.81       2054.51       2044.82       2028.56       1993.67       1919.66      
 1781.85       1572.37       1359.79       1183.88       1003.99       838.303       704.432      
 561.929       439.363       334.566       269.334       193.93        160.649       119.728      
 95.6434       75.7053       68.4039       71.4853       71.9493       72.6006       74.2427      
 74.1407       73.6589       101.998       258.326       494.722       601.194       562.67       
 376.591       37.5191      -346.277      -692.491      -970.538      -1197.97      -1337.72      
-1446.3       -1517.64      -1608.9       -1689.86      -1729.5       

150 YR3 0 A 2040.0 0 32 2 129 
D5 0.52096 0.212415 0.085715 111.976 -90 R3 111.976 
 1300.3        1296.46       1295.48       1296.91       1296.9        1317.42       1326.41      
 1338.83       1356.89       1445.43       1608.87       1747.05       1841.26       1911.41      
 1961.42       2008.24       2033.58       2056.98       2072.25       2078.93       2089.99      
 2097.5        2095.63       2097.11       2094.26       2087.65       2077.67       2036.14      
 1927.39       1746.94       1537.42       1332          1137.39       964.502       804.336      
 653.456       492.254       389.243       303.349       233.522       188.44        137.997      
 105.713       108.374       87.048        90.6652       97.7252       97.9616       97.0932      
 89.0861       85.1903       116.544       288.993       571.438       755.073       838.316      
 781.353       555.825       207.787      -156.641      -437.838      -684.549      -862.819      
-977.825      -1058.35      -1155.49      -1253.31      -1289.89      

160 YR1 0 A 2040.0 0 32 2 135 
D5 0.516005 0.2113 0.084115 111.707 -90 R3 111.707 
 883.436       875.498       869.51        881.417       884.594       892.012       899.831      
 902.363       937.718       1034.95       1179.11       1332.96       1472.51       1589.76      
 1691.35       1790.89       1871.64       1930.68       1990.67       2038.78       2065.75      
 2075.05       2078.94       2085.93       2097.31       2109.48       2120.94       2118.97      
 2046.69       1878.23       1682.57       1461.41       1249.63       1035.01       847.517      
 684.179       518.635       396.32        302.553       231.176       188.668       134.398      
 100.76        92.9104       87.6539       89.5376       91.7147       91.9729       87.2138      
 83.2967       81.6868       116.632       288.626       614.397       894.415       1066.9       
 1133.93       981.897       692.523       333.939       7.86398      -250.288      -434.673      
-563.164      -643.98       -745.006      -840.094      -878.565      

170 YR3 0 A 2040.0 0 32 2 153 
D5 0.514 0.21097 0.089765 113.049 -90 R3 113.049 
 475.752       479.128       477.65        488.41        491.073       483.164       479.926      
 478.611       502.564       607.561       786.807       975.077       1149.05       1304.24      
 1450.99       1578.24       1699.44       1808.88       1903.87       1989.14       2046.14      
 2063.88       2072.13       2086.49       2107.19       2135.07       2171.69       2195.47      
 2156.89       2033.21       1848.57       1631.89       1409.76       1187.57       959.697      
 759.152       594.195       450.105       348.907       268.248       225.024       157.772      
 117.211       101.003       100.18        96.655        98.443        94.9615       92.237       
 88.9534       92.6884       126.63        291.766       656.519       1025.01       1312.56      
 1499.26       1468.83       1221          852.716       525.959       250.317       34.4548      
-93.0659      -185.526      -317.375      -422.532      -477.078      

180 YR1 0 A 2040.0 0 32 2 159 
D5 0.513225 0.219575 0.018835 94.9028 -90 R3 94.9028 
 184.473       191.181       197.616       188.587       189.066       191.055       188.319      
 189.185       209.206       305.571       492.88        701.052       891.057       1065.87      
 1232.9        1378.8        1515.16       1645.93       1767.26       1871.74       1932.13      
 1954.41       1965.87       1989.41       2021.28       2064.97       2112.89       2157.56      
 2144.22       2022.44       1827.53       1608.5        1389.21       1157.19       921.993      
 710.948       530.447       391.245       285.489       212.986       158.754       116.482      
 92.7412       84.7598       87.2664       87.6094       87.3052       86.5505       91.3913      
 99.8599       108.472       129.949       278.635       633.664       1032.67       1396.92      
 1643.68       1667.41       1447.62       1100.59       743.969       461.241       258.398      
 111.444       32.4187      -74.7055      -154.343      -184.072      

190 YR1 0 A 2040.0 0 32 2 171 
D5 0.513585 0.20814 0.091605 113.755 -90 R3 113.755 
-136.47       -129.637      -136.228      -141.024      -132.662      -126.546      -124.176      
-122.674      -103.871      -15.2236       164.801       389.097       609.507       820.106      
 1014.37       1197.02       1381.04       1545.84       1698.06       1837.56       1937.54      
 1978.77       2000.71       2035.77       2083.95       2140.38       2203.55       2266.9       
 2284.43       2185.52       2011.88       1802.34       1560.3        1301.64       1064.32      
 844.107       646.724       473.253       363.355       265.461       213.999       151.62       
 115.501       120.676       123.787       119.077       115.882       111.577       107.456      
 105.171       103.699       127.319       293.786       676.012       1146.84       1582.27      
 1939.57       2058.46       1919.43       1585.15       1202.36       902.392       674.463      
 509.348       409.389       284.597       183.348       137.388      

200 YR3 0 A 2040.0 0 32 2 189 
D5 0.515677 0.212657 0.0804667 110.726 -90 R3 110.726 
-237.354      -235.274      -228.556      -231.299      -241.906      -240.198      -229.428      
-238.864      -227.249      -126.232       65.517        285.044       511.55        742.67       
 962.03        1165.35       1353.19       1523.15       1690.28       1857.94       1972.22      
 2015.75       2035.77       2071.07       2118.34       2178.55       2251.95       2327.06      
 2361.07       2297          2140.03       1924.08       1675.63       1417.51       1148.88      
 908.268       699.963       522.826       399.314       298.212       226.985       157.754      
 115.507       109.18        104.192       103.647       103.275       100.569       100.006      
 103.673       109.97        131.605       269.737       656.409       1155.42       1658.39      
 2068.5        2239.87       2106.88       1765.32       1386.37       1068.57       814.722      
 648.485       528.86        391.91        285.104       238.86       

210 YR1 0 A 2040.0 0 32 2 201 
D5 0.512553 0.138213 0.18375 143.05 -90 R3 143.05 
-553.012      -549.776      -544.535      -553.829      -560.229      -558.635      -565.277      
-563.416      -541.337      -457.738      -277.424      -38.1033       217.563       448.36       
 693.126       935.868       1161.76       1372.07       1572.51       1767.1        1898.45      
 1942.87       1971.46       2012.96       2073          2150.28       2246.39       2348         
 2406.26       2369.98       2247.77       2023          1783.01       1524.33       1242.53      
 997.182       767.762       591.595       444.099       335.657       254.545       164.697      
 126.695       111.36        94.2294       91.4888       89.8339       90.0525       91.7318      
 99.9324       114.018       132.71        265.101       680.02        1225.98       1805.68      
 2316.15       2573.72       2506.43       2191.05       1817.87       1484.37       1208.35      
 1029.7        897.597       740.216       621.674       567.449      

220 YR1 0 A 2040.0 0 32 2 213 
D5 0.513086 0.215548 0.082204 110.876 -90 R3 110.874 
-586.142      -586.361      -589.934      -585.953      -580.78       -584.027      -576.827      
-577.025      -572.368      -490.469      -308.475      -60.7238       199.793       456.097      
 711.35        959.344       1193.78       1413.18       1625.55       1838.7        1988.13      
 2041.42       2068.85       2111.79       2169.53       2242.51       2337.75       2453.64      
 2542.15       2515.05       2386.58       2185.38       1924.64       1649.82       1378.48      
 1110.41       868.413       661.227       501.247       381.819       282.094       175.76       
 123.001       109.635       106.628       109.131       110.082       110.258       113.297      
 115.772       116.819       130.76        257.95        662.075       1240.23       1850.91      
 2416.04       2717.75       2664.89       2359.01       1954.64       1591.16       1308.82      
 1102.4        951.046       768.934       636.303       596.155      

230 YR1 0 A 2040.0 0 32 2 231 
D5 0.512685 0.21372 0.079925 110.505 -90 R3 110.505 
-695.869      -682.358      -683.032      -685.236      -673.419      -651.178      -646.802      
-657.544      -655.721      -572.431      -386.501      -139.782       133.056       399.325      
 659.003       917.401       1173.51       1413.94       1649.48       1867.92       2020.66      
 2082.57       2115.27       2161.94       2229.02       2313.39       2418.45       2538.52      
 2636.87       2643.49       2519.67       2321.04       2058.2        1768.69       1484.13      
 1208.03       945.241       729.645       544.885       403.099       294.584       176.794      
 119.091       96.1496       102.982       103.467       103.19        102.532       101.313      
 100.88        103.307       127.169       272.276       682.608       1273.82       1920.64      
 2519.47       2862.55       2830.04       2537.78       2131.3        1751.11       1440.36      
 1222.75       1052.82       853.53        720.75        684.681      

240 YR1 0 A 2040.0 0 32 2 243 
D5 0.51106 0.20895 0.102915 116.222 -90 R3 116.222 
-862.791      -860.278      -857.441      -849.47       -852.663      -861.932      -863.563      
-869.853      -837.613      -734.705      -542.381      -272.613       18.8841       308.745      
 604.153       899.12        1187.87       1461.17       1721.95       1966.68       2147.5       
 2218.08       2253.46       2308.05       2381.67       2469.89       2589.49       2751.53      
 2887.7        2897.97       2796.9        2616.22       2355.61       2059.66       1746.21      
 1451.89       1169.52       930.688       719.443       548.212       409.755       227.021      
 145.917       147.589       147.454       146.552       143.612       141.392       139.329      
 137.779       138.212       153.421       292.048       741.464       1399.31       2123.03      
 2834.05       3264.24       3279.05       3000.84       2608.83       2213.61       1852.78      
 1608.29       1396.5        1121.32       939.348       884.405      

250 YR3 0 A 2040.0 0 32 2 261 
D5 0.50791 0.2186 0.082405 110.655 -90 R3 110.654 
-927.282      -927.18       -922.593      -924.363      -931.214      -926.503      -919.649      
-923.541      -914.631      -836.559      -625.565      -332.885      -5.75331       327.883      
 648.922       969.248       1281.85       1585.82       1884.43       2156.06       2346.37      
 2424.48       2466.01       2535.19       2633.28       2751.78       2895.29       3056.51      
 3206.53       3230.49       3143.58       2956.63       2705.17       2399.75       2071.18      
 1751.31       1444.04       1160.95       908.565       677.061       500.167       275.246      
 158.321       143.341       145.587       140.643       144.057       142.032       141.032      
 141.985       145.664       165.03        302.94        775.256       1485.85       2301.35      
 3075.63       3604.17       3665.62       3412.61       2995.14       2535.63       2152.47      
 1831.91       1578.12       1224.71       1005.48       944.727      

260 YR3 0 A 2040.0 0 32 2 273 
D5 0.52155 0.21358 0.0809033 110.747 -90 R3 110.748 
-1012.33      -1010.55      -1003.28      -1001.06      -1022.03      -1036.12      -1035.73      
-1028.08      -1019.59      -973.799      -864.565      -689.099      -463.293      -201.727      
 68.1222       345.63        640.801       943.621       1223.5        1500.54       1698.6       
 1775.42       1820.56       1887.42       1986.64       2114.3        2277.58       2474.12      
 2692.15       2867.29       2954.15       2922.86       2799.89       2577.29       2315.08      
 2016.53       1698.71       1389.1        1108.3        856.505       630.332       322.231      
 171.636       138.604       133.42        138.13        138.805       137.59        140.033      
 136.079       130.376       132.459       193.696       457.304       1005.06       1740.35      
 2583.89       3297.99       3658.98       3613.22       3293.93       2877.42       2474.85      
 2115.25       1809.1        1369.33       1098.8        1014.9       

265 YR3 0 A 2040.0 0 32 2 297 
D5 0.52485 0.217645 0.087435 111.887 -90 R3 111.887 
-1153.2       -1130.14      -1127.94      -1142.74      -1148.1       -1140.01      -1136.57      
-1138.28      -1138.43      -1116.07      -1025         -858.516      -638.114      -383.15       
-110.667       177.123       470.712       767.53        1066.45       1374.34       1601.43      
 1687.05       1730.42       1799.06       1893.87       2015.77       2181.17       2401.91      
 2655.38       2890.22       3036.46       3080.59       3023.35       2869.61       2631.32      
 2358.7        2038.92       1710.9        1381.09       1087.33       821.779       431.024      
 225.268       190.828       208.223       209.78        208.724       206.764       207.376      
 207.484       204.018       192.749       221.063       462.625       975.146       1726.72      
 2618.46       3446.43       3939.51       4010.82       3765.84       3362.94       2927.01      
 2521.56       2159.87       1615.73       1257.34       1159.52      

270 YR1 0 A 2040.0 0 32 2 279 
D5 0.52159 0.21078 0.08162 111.167 -90 R3 111.167 
-1158.4       -1163.47      -1162.53      -1158.7       -1156.12      -1157.11      -1153.36      
-1160.14      -1155.38      -1138.89      -1106.29      -1038.55      -899.095      -694.993      
-467.513      -226.761       30.5623       307.659       611.975       907.374       1129.33      
 1217.1        1266.66       1341.08       1445.42       1572.65       1739.85       1970.36      
 2264.12       2592.97       2899.38       3092.61       3129.29       3041.95       2850.24      
 2570.23       2246.73       1879.68       1529.26       1195.54       895.758       448.025      
 208.705       180.918       184.444       184.409       184.173       182.769       180.401      
 175.186       166.207       163.571       173.472       265.964       612.85        1272.84      
 2194.58       3176.04       3878.45       4122.41       3960.63       3565.35       3105.42      
 2658.36       2249.89       1650.19       1271.42       1164.76      

275 YR2 0 A 2040.0 0 32 2 304 
D5 0.518853 0.203127 0.0669433 108.24 -90 R3 108.239 
-960.864      -957.863      -954.765      -953.23       -946.565      -949.113      -954.691      
-958.576      -953.992      -952.842      -940.188      -915.248      -867.483      -769.08       
-637.969      -468.129      -266.159      -42.1731       184.734       420.542       604.849      
 680.661       720.851       787.906       878.232       989.81        1132.08       1321.88      
 1569.99       1906.24       2260.43       2565.11       2708.48       2666.17       2508.28      
 2247.64       1938.14       1625.74       1306.41       999.252       701.754       292.991      
 98.2396       66.8183       84.5844       89.1168       90.4383       90.137        87.7602      
 83.0208       69.0419       54.3667       56.0604       104.295       243.394       649.325      
 1420.61       2363.91       3136.12       3443.44       3330.87       2986.76       2584.18      
 2186.38       1823.44       1301.46       1010.02       950.514      

280 YR2 0 A 2040.0 0 32 2 316 
D5 0.513497 0.207623 0.0746767 109.782 -90 R3 109.784 
-599.621      -586.796      -570.661      -575.018      -589.821      -596.492      -597.989      
-582.591      -566.734      -578.136      -580.644      -572.202      -533.155      -469.653      
-391.584      -281.395      -154.963      -9.09133       153.792       314.461       446.216      
 502.917       529.853       579.55        647.657       735.654       856.583       1016.34      
 1230.67       1481.19       1797.12       2075.9        2283.91       2340.09       2259.03      
 2081.63       1849.09       1574.46       1288.67       990.036       718.94        262.73       
 39.2037       12.8993       11.1729       13.5991       14.6634       16.0369       12.8392      
 4.79659      -3.61667       4.90801       12.8094       9.87745       124.451       381.501      
 905.304       1653.97       2343.01       2714.38       2709.31       2467.8        2142.08      
 1780.94       1441.83       910.961       633.476       598.635      

285 YR1 0 A 2040.0 0 32 2 327 
D5 0.522215 0.21096 0.08424 111.768 -90 R3 111.768 
-749.208      -748.409      -750.759      -754.174      -740.021      -737.429      -754.232      
-764.265      -765.614      -763.259      -751.441      -736.518      -704.333      -643.449      
-554.695      -441.742      -325.273      -191.411      -40.5078       116.622       235.925      
 282.923       307.628       349.596       409.744       490.891       606.185       766.535      
 965.41        1234.11       1534.43       1847.41       2113.24       2266.02       2290.22      
 2214.36       2053.34       1824.4        1542.57       1236.09       925.994       410.118      
 104.568       49.9602       69.4936       72.7339       72.7478       69.2461       66.9966      
 58.2964       47.0687       40.0678       42.2227       63.6077       163.978       416.824      
 892.022       1594.51       2316.7        2812.85       2958.45       2831.46       2553.65      
 2195.2        1820.73       1196.89       824.319       763.508      

290 YR1 0 A 2040.0 0 32 2 339 
D5 0.521045 0.20772 0.08303 111.788 -90 R3 111.788 
-743.418      -746.725      -748.046      -760.486      -759.753      -757.333      -758.445      
-760.306      -751.803      -756.355      -772.488      -763.285      -721.29       -681.246      
-623.537      -542.791      -455.432      -356.431      -235.944      -96.4641       16.882       
 62.3272       86.4747       122.995       170.41        233.425       320.676       440.792      
 603.039       825.815       1113.43       1399.79       1667.08       1840.34       1920.59      
 1915.2        1812.37       1650.33       1430.35       1175.02       910.528       410.585      
 108.559       53.0279       53.6664       62.6003       65.53         69.5411       69.2891      
 67.433        64.9064       60.3107       60.636        65.7263       119.113       304.125      
 686.914       1275.2        1933.06       2418.59       2617.31       2580.11       2385.52      
 2104.32       1785.34       1202.19       829.926       751.51       

300 YR3 0 A 2040.0 0 32 2 357 
D5 0.523747 0.203897 0.0797533 111.363 -90 R3 111.361 
-680.635      -686.268      -688.46       -690.698      -682.57       -670.362      -667.077      
-671.217      -665.275      -666.535      -654.117      -641.44       -630.896      -599.666      
-556.139      -501.188      -432.922      -355.421      -254.381      -145.159      -67.5522      
-39.1801      -24.1717       0.768568      36.8559       86.1931       157.817       257.711      
 395.344       566.583       774.016       979.194       1185.94       1322.09       1418.19      
 1435.34       1398.93       1311.16       1199.72       1056.42       892.712       499.893      
 184.314       109.183       137.83        135.76        135.108       128.8         119.622      
 109.549       101.681       107.417       114.815       112.1         163.911       298.027      
 597.056       1063.49       1535.73       1912.79       2112.13       2101.92       1997.69      
 1835.2        1648.11       1173.54       779.29        679.706      

310 YR1 0 A 2040.0 0 32 2 369 
D5 0.521905 0.194715 0.0888 114.516 -90 R3 114.516 
-617.776      -619.685      -630.756      -634.439      -639.725      -630.183      -625.029      
-619.893      -617.09       -622.683      -623.518      -608.55       -576.273      -544.04       
-510.052      -466.215      -392.384      -298.062      -220.023      -131.285      -46.9785      
-10.3689       7.45679       38.7527       80.1052       134.81        200.454       285.497      
 420.38        603.524       806.358       1031.07       1286.08       1468.58       1611.06      
 1639.06       1610.57       1517.35       1379.91       1226.87       1063.65       649.237      
 269.144       156.833       142.715       146.024       146.558       147.024       147.575      
 148.961       152.328       154.967       154.85        173.298       222.396       370.686      
 628.13        1076.07       1621.18       2057.53       2289.98       2300.46       2177.1       
 1999.01       1777.84       1265.2        778.639       642.918      

320 YR1 0 A 2040.0 0 32 2 381 
D5 0.524365 0.192425 0.08884 114.783 -90 R3 114.783 
-583.253      -580.669      -587.21       -601.115      -595.932      -585.431      -585.751      
-592.028      -583.68       -571.654      -582.706      -583.288      -564.833      -549.624      
-518.426      -463.099      -415.725      -364.439      -280.633      -204.819      -143.181      
-116.681      -103.545      -79.5475      -42.9102       4.58158       71.9157       158.102      
 257.954       412.632       610.671       848.135       1083.78       1294.93       1462.19      
 1557.58       1570.79       1527.54       1424.75       1300.82       1142.2        717.594      
 305.992       191.752       201.29        202.752       199.926       196.571       191.623      
 185.276       177.287       170.653       165.935       171.654       205.708       315.546      
 534.753       919.477       1402.2        1860.32       2139.34       2222.61       2154.3       
 2006.29       1807.7        1274.35       756.054       603.825      

330 YR1 0 A 2040.0 0 32 2 393 
D5 0.524085 0.184155 0.09653 117.662 -90 R3 117.662 
-368.454      -364.763      -368.541      -363.088      -342.613      -326.085      -328.035      
-335.356      -342.312      -345.399      -349.756      -337.983      -323.954      -307.198      
-277.897      -237.487      -193.055      -163.639      -118.317      -53.8596      -6.86861      
 7.50889       15.8834       30.9743       53.7968       85.3956       125.831       189.665      
 269.355       371.074       493.74        654.131       804.656       943.019       1039.51      
 1076.77       1051.11       983.914       883.201       779.75        684.757       459.087      
 214.462       130.903       139.844       141.336       143.863       145.001       146.493      
 149.084       146.818       136.658       127.041       117.34        133.796       226.674      
 393.623       650.944       972.651       1258.95       1424.85       1454.31       1356.14      
 1205.34       1063.22       752.204       449.705       361.449      

340 YR1 0 A 2040.0 0 32 2 405 
D5 0.525315 0.184975 0.090505 116.072 -90 R3 116.071 
-150.695      -147.945      -135.471      -134.932      -142.486      -142.849      -142.771      
-139.569      -136.018      -150.229      -147.302      -125.556      -112.356      -95.7466      
-73.4253      -52.9543      -39.4356      -4.81963       22.7836       51.0012       80.3147      
 92.8053       100.235       110.023       125.987       147.269       182.616       220.566      
 259.642       317.153       401.075       488.38        573.028       662.46        713.236      
 753.288       748.667       721.889       667.655       604.173       538.804       356.437      
 160.229       99.3422       77.3795       83.1997       84.7675       87.9216       84.3822      
 79.5512       75.6769       75.0095       70.5195       74.0686       116.995       186.027      
 276.506       433.86        633.147       783.413       882.796       909.648       876.892      
 789.967       694.002       461.521       223.261       145.302      

350 YR1 0 A 2040.0 0 32 2 417 
D5 0.526665 0.171735 0.10742 122.026 -90 R3 122.026 
-73.0238      -82.3433      -89.9525      -89.9328      -86.1085      -82.781       -75.7635      
-74.8781      -68.4262      -62.4516      -76.567       -84.0668      -67.3672      -49.2212      
-40.155       -35.7533      -25.9382      -22.7812      -2.96445       16.398        24.1711      
 29.5132       32.6284       39.7675       51.2278       66.3601       85.9351       101.696      
 129.346       194.232       257.256       331.121       422.966       517.527       592.065      
 629.819       636.48        619.688       572.906       527.75        467.439       331.671      
 157.1         81.4057       82.4931       88.2211       85.7762       91.0483       93.349       
 88.0294       76.8978       80.9968       84.1265       68.8479       86.0491       102.632      
 164.755       268.775       417.131       580.146       710.453       745.038       701.604      
 644.319       565.951       368.872       154.239       78.0835      

355 YR1 0 A 2040.0 0 32 2 441 
D5 0.52655 0.17037 0.10852 122.495 -90 R3 122.495 
-27.9039      -33.2365      -25.4432      -15.6033      -12.615       -9.07335      -14.3371      
-18.0462      -14.0509      -6.38121      -10.0639      -19.5334      -18.8097      -2.16358      
-1.00133      -14.1047      -21.4279       17.7397       30.7332       20.1776       26.6217      
 36.5325       43.1578       53.0146       66.9938       76.4703       88.3937       103.968      
 121.182       153.445       211.333       260.859       340.525       413.9         467.014      
 501.861       512.383       476.515       443.267       379.949       341.334       240.759      
 122.366       77.5223       77.061        77.5944       77.1604       72.044        65.117       
 58.4862       54.2506       50.4771       51.5573       61.7466       67.1744       83.5837      
 111.094       179.567       282.303       421.399       514.242       544.412       508.421      
 439.173       351.961       219.589       71.1037       18.0109      

360 YR1 0 A 2040.0 0 32 2 429 
D5 0.527575 0.16834 0.110835 123.361 -90 R3 123.361 
 127.324       134.119       136.461       123.624       122.137       129.907       132.811      
 140.912       136.756       136.848       145.211       144.507       132.339       131.308      
 139.084       145.951       142.348       156.323       153.445       135.237       134.345      
 138.779       145.769       152.982       164.173       172.733       172.141       161.037      
 172.279       200.817       222.164       247.216       274.541       298.05        319.148      
 302.449       271.265       191.689       112.859       48.2771       19.8949       26.5154      
 28.327        10.6782       19.2299       24.2688       26.8078       28.3474       28.1184      
 25.1624       13.1085      -2.18756      -4.57585      -15.6471      -1.75541       9.73824      
 10.1299       38.6668       88.1035       140.982       144.358       111.78        30.7121      
-72.3873      -140.53       -149.349      -139.282      -142.434      

365 YR1 0 A 2040.0 0 32 2 453 
D5 0.526283 0.16951 0.107617 122.41 -90 R3 122.407 
 249.321       251.988       258.405       269.751       263.414       252.837       244.094      
 241.677       247.177       239.488       233.756       239.581       238.653       235.973      
 229.979       233.822       246.571       252.131       239.849       226.913       228.204      
 229.652       233.729       237.988       240.127       240.855       242.734       250.816      
 245.206       246.681       260.049       237.841       221.397       223.164       210.388      
 165.039       99.8548       54.6539      -4.31444      -44.3822      -67.7213      -34.6313      
-18.9322      -26.0243      -31.6805      -28.9722      -27.5029      -26.2283      -26.3414      
-27.986       -30.8247      -34.7212      -49.4811      -49.8505      -28.9211      -25.8372      
-22.1443      -27.9816      -46.0161      -44.4959      -98.0847      -156.406      -233.467      
-305.386      -349.581      -319.438      -260.779      -243.026      

370 YR3 0 A 2040.0 0 32 2 471 
D5 0.52839 0.168113 0.10905 122.97 -90 R3 122.966 
 251.645       261.738       245.383       229.529       237.455       250.852       253.095      
 253.21        234.933       234.156       239.12        237.857       259.905       255.988      
 229.095       213.557       235.653       237.758       223.721       213.027       209.309      
 206.907       210.427       213.028       218.227       218.954       216.099       211.892      
 207.396       204.73        185.972       199.215       174.967       143.793       113.245      
 88.688        38.3338      -11.5499      -37.528       -69.8741      -82.1571      -41.1005      
-19.6174      -26.2342      -29.2897      -26.9356      -26.6476      -25.7152      -24.8492      
-28.0831      -33.1428      -32.5864      -38.8418      -50.9978      -50.7328      -44.2137      
-61.3652      -65.6037      -93.5191      -119.992      -173.785      -228.193      -293.941      
-336.439      -358.25       -325.018      -263.687      -251.809      

380 YR3 0 A 2040.0 0 32 2 483 
D5 0.528585 0.163055 0.115065 125.21 -90 R3 125.21 
 232.086       233.395       246.179       244.295       230.948       236.871       236.219      
 233.298       223.678       229.649       237.383       229.493       222.37        222.419      
 217.5         207.586       199.732       193.275       180.346       171.61        166.81       
 162.456       162.035       158.597       154.936       151.357       147.773       143.348      
 139.844       140.914       115.383       103.554       86.441        67.3413       55.1906      
 16.3138      -7.69207      -45.5518      -69.9561      -93.2008      -95.6388      -56.8543      
-41.4142      -43.2382      -41.0811      -43.4447      -42.4922      -47.6722      -54.1166      
-65.8006      -78.0809      -68.785       -56.4234      -56.4291      -57.4708      -59.8554      
-99.3642      -118.804      -162.135      -197.173      -226.324      -276.59       -318.196      
-343.557      -352.031      -305.352      -247.857      -231.3        

390 YR4 0 A 2040.0 0 32 2 496 
D5 0.52909 0.160197 0.11683 126.103 -90 R3 126.101 
 170.5         175.241       164.171       154.084       173.303       177.567       178.227      
 175.974       181.958       184.421       178.674       187.461       192.325       178.377      
 158.283       146.976       144.443       133.867       126.124       115.771       106.158      
 100.102       101.889       98.6946       96.4033       99.149        106.819       120.401      
 116.66        92.8033       78.231        53.2621       27.5096       4.84427      -6.97611      
-26.7232      -40.7849      -51.3126      -75.8294      -85.5681      -89.249       -53.246       
-52.4031      -55.3317      -56.994       -60.4718      -59.646       -61.7049      -60.955       
-58.9429      -51.6722      -49.9506      -58.2413      -55.5719      -67.1776      -86.2973      
-78.5356      -108.258      -155.339      -191.784      -210.028      -256.377      -291.533      
-296.334      -289.469      -251.261      -203.977      -179.415      

400 YR1 0 A 2040.0 0 32 2 501 
D5 0.528865 0.159485 0.118205 126.544 -90 R3 126.544 
 149.91        150.781       150.7         140.029       138.354       146.621       149.337      
 149.944       139.53        131.289       133.114       139.818       129.125       119.73       
 121.401       113.643       106.395       104.788       109.105       105.614       91.8981      
 86.8563       88.5062       89.7244       87.4817       80.4574       69.7293       70.3648      
 74.0967       59.5626       27.5061       3.91394      -13.2849      -25.7025      -41.4282      
-49.6534      -62.3487      -76.677       -83.4229      -87.3937      -73.4103      -46.8405      
-36.2718      -32.0611      -52.1523      -57.6486      -58.794       -62.1622      -64.2127      
-64.8108      -63.8025      -62.3266      -62.2712      -52.8717      -59.3688      -55.9818      
-96.6634      -120.154      -149.144      -182.936      -212.943      -235.51       -247.986      
-261.289      -246.205      -202.634      -159.308      -151.698      

410 YR4 0 A 2040.0 0 32 2 520 
D5 0.52829 0.15885 0.120943 127.284 -90 R3 127.283 
 108.365       108.925       100.603       108.602       123.735       112.233       111.044      
 109.698       99.2569       105.303       108.509       102.219       87.5515       75.2296      
 92.4209       107.231       92.9591       82.9797       73.8978       71.8544       72.2239      
 71.884        74.5407       73.096        72.5883       66.251        56.9851       44.7984      
 39.8193       34.2825       12.3341      -9.79586      -29.0414      -37.6989      -53.7294      
-66.9686      -80.4904      -81.7499      -100.729      -85.113       -77.2778      -51.0519      
-34.4088      -48.7699      -26.2015      -20.8318      -22.7908      -24.2691      -25.2196      
-26.3406      -22.9258      -33.6755      -48.4582      -38.921       -44.191       -59.8492      
-80.8235      -107.297      -139.409      -180.483      -194.601      -220.939      -229.003      
-221.605      -211.504      -172.187      -129.79       -119.597      

420 YR1 0 A 2040.0 0 32 2 525 
D5 0.52457 0.16384 0.112215 124.407 -90 R3 124.405 
 121.743       134.493       143.39        136.666       127.449       118.445       109.233      
 109.636       110.062       94.4082       98.0694       107.557       109.073       103.502      
 103.741       101.08        94.1151       92.5072       84.2641       80.6638       67.2154      
 61.206        61.3151       60.7005       61.7949       60.2865       56.9343       50.2983      
 39.7737       38.1498       33.7323       21.585        4.65787      -24.954       -46.3913      
-63.6578      -67.9491      -76.0454      -76.3827      -81.074       -61.034       -45.1432      
-23.263       -29.9632      -16.0828      -13.1718      -11.9534      -11.654       -11.7997      
-13.9109      -12.7874      -7.37332       3.09558       2.57233      -14.5486      -34.8686      
-57.0281      -84.3111      -120.553      -146.483      -176.609      -191.734      -210.537      
-207.144      -203.701      -166.285      -131.642      -126.436      

430 YR1 0 A 2040.0 0 32 2 537 
D5 0.52824 0.162115 0.11611 125.611 -90 R3 125.611 
 99.2547       113.339       112.872       100.4         95.1728       104.263       112.36       
 109.426       111.311       116.123       113.164       99.3331       86.9259       84.3688      
 80.9676       77.3062       84.6385       88.7264       87.2299       77.3893       60.022       
 52.2665       54.2719       54.6653       56.2766       58.817        62.6849       66.0738      
 60.5424       53.8777       31.4888       26.006       -2.36835      -18.9495      -32.9237      
-43.3081      -71.6297      -74.8058      -80.4106      -72.4732      -68.5729      -42.4521      
-27.3576      -27.768       -21.816       -21.1415      -16.4838      -16.6166      -16.5142      
-20.1971      -25.7082      -30.1087      -22.453       -13.7425      -25.1175      -40.8565      
-47.7492      -65.8758      -96.3542      -128.774      -156.602      -172.587      -201.293      
-202.121      -187.751      -155.252      -118.863      -104.833      

440 YR1 0 A 2040.0 0 32 2 549 
D5 0.52852 0.158625 0.119565 127.007 -90 R3 127.008 
 74.7497       81.9952       76.4565       80.544        87.9444       80.4443       61.4219      
 63.7149       78.4571       76.7137       62.703        52.7831       62.2518       65.8721      
 63.4625       55.3008       60.5068       72.9121       73.5843       69.6784       62.795       
 61.2525       62.267        63.6317       62.7909       61.4769       57.92         50.0999      
 43.4857       30.7561       30.384        16.319       -11.3149      -21.1818      -50.1433      
-55.8388      -65.5018      -71.2303      -72.6043      -77.9228      -69.2077      -48.7481      
-34.5443      -27.106       -31.6875      -33.076       -31.5752      -32.9592      -33.8751      
-33.387       -34.9771      -33.3302      -39.0593      -35.0067      -31.6278      -34.1433      
-39.5858      -59.2131      -89.6903      -123.665      -134.759      -164.201      -180.124      
-177.917      -173.669      -133.989      -91.2671      -72.9191      

450 YR1 0 A 2040.0 0 32 2 561 
D5 0.528605 0.15927 0.117325 126.377 -90 R3 126.377 
 56.764        64.3072       66.0426       60.3509       48.8477       46.5742       41.9872      
 42.9543       59.3177       73.7828       65.2047       68.8501       61.9786       57.1985      
 56.4329       58.6192       53.8594       46.2952       41.8932       38.5173       37.1429      
 35.4231       35.5692       34.9804       32.8713       35.7504       40.4497       40.5844      
 27.0489       20.4248       17.8405       0.532415     -3.82971      -27.8083      -51.3085      
-66.3948      -75.642       -84.803       -77.5065      -82.5143      -80.0662      -48.9667      
-29.7992      -17.2839      -39.1415      -36.4891      -39.5681      -42.3235      -46.1416      
-51.6176      -45.4242      -38.5923      -32.8696      -33.8688      -57.9899      -62.4232      
-56.9998      -44.7267      -85.9148      -110.719      -132.582      -157.497      -167.889      
-173.702      -163.568      -126.686      -86.4693      -71.2724      

460 YR1 0 A 2040.0 0 32 2 573 
D5 0.52906 0.155495 0.11931 127.499 -90 R3 127.499 
 34.2156       40.8992       37.5891       42.9546       46.5602       49.0555       38.2795      
 44.0837       42.7578       48.7443       46.9395       37.7367       40.9265       37.1538      
 28.7959       26.3035       36.8494       49.5106       48.552        36.5814       33.831       
 29.9102       32.769        31.9197       32.0011       33.0452       36.7904       37.8408      
 30.5708       26.8935       6.16003       6.16172      -0.267292     -36.5591      -41.6163      
-51.2524      -73.2698      -85.503       -96.5371      -85.54        -78.284       -61.7604      
-36.0843      -32.221       -17.9971      -15.8901      -14.9453      -18.682       -18.8122      
-18.4796      -22.7217      -32.7118      -36.2905      -19.7319      -23.916       -52.8071      
-39.4642      -45.9156      -61.2639      -94.3639      -130.155      -143.398      -155.199      
-167.514      -149.847      -114.563      -74.1516      -46.5907      

470 YR2 0 A 2040.0 0 32 2 586 
D5 0.529803 0.152773 0.11913 127.947 -90 R3 127.944 
 41.6406       45.429        43.7218       34.246        28.2608       34.449        39.3478      
 37.0404       32.7679       30.5829       35.3606       30.5927       32.5298       43.4779      
 50.7097       46.7659       42.8735       32.8781       21.3409       26.8328       21.4516      
 15.4319       14.3577       11.018        7.88899       6.36731       10.4853       15.2872      
 23.4981       29.2996       7.95106      -14.1759      -26.6374      -26.9588      -51.0525      
-72.8521      -85.7106      -87.2949      -91.3604      -87.9356      -75.0353      -51.5248      
-38.1049      -32.1408      -33.2794      -30.1917      -26.9397      -26.2496      -21.9058      
-23.0049      -27.2533      -26.1111      -24.9601      -27.9826      -29.2984      -21.4464      
-26.3977      -46.3982      -65.8831      -87.1212      -103.255      -129.13       -142.084      
-142.559      -144.721      -100.566      -57.0929      -44.9784      

480 YR1 0 A 2040.0 0 32 2 597 
D5 0.531125 0.148165 0.12189 129.443 -90 R3 129.443 
 30.7607       36.5367       42.5451       44.2984       49.3658       50.0985       49.676       
 45.3113       28.6008       25.4003       21.1348       19.6281       11.536        9.00405      
 12.2454       14.7136       20.3638       31.591        31.4173       28.0484       30.2367      
 28.1925       29.0664       29.8435       30.2016       26.6949       21.8553       16.7554      
 17.757        1.44314      -5.69586      -5.40023      -31.7345      -49.8799      -54.7012      
-70.315       -88.2006      -101.282      -99.8473      -89.941       -91.1589      -60.8061      
-41.1143      -32.9314      -28.7193      -26.4897      -30.1053      -30.5703      -34.6765      
-35.1807      -34.2935      -29.5256      -37.3385      -45.068       -46.0369      -50.3719      
-44.3045      -47.9415      -56.3255      -86.8614      -113.153      -128.562      -138.146      
-130.058      -127.524      -92.1794      -48.4911      -28.737       

490 YR3 0 A 2040.0 0 32 2 615 
D5 0.53176 0.14338 0.12556 131.209 -90 R3 131.209 
 25.3979       30.5365       25.5152       18.8097       17.3175       15.7254       12.3226      
 23.3338       26.0889       18.4965       16.9348       13.8669       15.6871       5.96206      
 2.15398       5.66303       13.2214       19.0834       13.9956       10.7793       10.184       
 9.10491       8.91674       10.264        6.73475       0.359642     -7.21045      -8.63367      
-9.73935      -12.1623      -4.93292      -10.9893      -25.4382      -54.8314      -61.6047      
-79.8448      -93.8041      -88.6862      -87.4863      -92.6025      -77.4429      -56.6301      
-34.2761      -29.2964      -23.5132      -20.6817      -18.0519      -17.6689      -15.3998      
-14.627       -17.4067      -29.1223      -30.4593      -20.6895      -30.7809      -40.2117      
-56.286       -51.6028      -61.9306      -85.3231      -111.974      -131.025      -135.01       
-128.238      -113.836      -81.0829      -37.8804      -23.7998      

500 YR1 0 A 2040.0 0 32 2 621 
D5 0.53192 0.141685 0.126795 131.826 -90 R3 131.826 
-4.18001       7.05412       5.65281       9.38181       24.9074       22.9835       5.98622      
 0.152823     -5.82602      -16.8688      -25.5021      -5.70802       14.1034       12.5501      
 9.35886       12.19         9.61248       9.38573       0.128267     -5.02474      -5.29702      
-4.83199      -6.67646      -7.15152      -8.68762      -13.0393      -15.7564      -18.1727      
-32.1034      -41.5387      -25.4466      -33.7295      -59.24        -71.1038      -81.4194      
-88.782       -103.27       -101.793      -102.466      -94.1613      -86.3035      -63.8537      
-33.7446      -19.3431      -13.1111      -10.5835      -9.56041      -11.3428      -14.1094      
-17.3179      -24.5525      -31.0776      -37.9397      -34.5681      -28.4163      -22.662       
-27.6075      -33.6033      -52.8998      -76.8433      -120.533      -122.555      -128.336      
-121.564      -103.791      -67.7192      -20.2627      -12.7537      

510 YR3 0 A 2040.0 0 32 2 639 
D5 0.532095 0.13932 0.129165 132.834 -90 R3 132.834 
-9.94839      -12.157       -11.8191      -6.64231      -1.78005       3.33181       3.81793      
-2.99563      -12.1199      -18.6824      -21.0645      -12.7261      -13.1548      -20.4202      
-30.4424      -40.3292      -37.6333      -28.6101      -18.2777      -21.1045      -22.5863      
-26.0999      -26.6753      -26.1677      -28.1233      -30.6274      -33.1334      -30.2476      
-20.5644      -34.5555      -37.0819      -45.2105      -58.4283      -69.6049      -77.0794      
-94.232       -102.217      -105.411      -91.7394      -95.3549      -88.8517      -61.6264      
-30.8153      -25.781       -14.5856      -12.2758      -11.1355      -13.696       -13.0347      
-14.3317      -15.6063      -20.2746      -20.4777      -9.62671      -24.6403      -31.2048      
-30.0585      -46.777       -60.9803      -82.3445      -101.389      -112.203      -118.157      
-111.185      -96.4501      -56.9703      -15.6045      -4.11395      

520 YR1 0 A 2040.0 0 32 2 645 
D5 0.532175 0.13814 0.12894 133.027 -90 R3 133.027 
-28.5266      -25.2166      -26.6161      -25.3775      -15.3785      -16.6441      -19.8441      
-12.6044      -6.55899      -9.49825      -19.7734      -23.7339      -20.2443      -18.8988      
-14.3641      -13.0907      -21.9669      -37.4303      -35.8338      -18.8285      -20.6839      
-28.177       -27.1113      -30.3095      -32.5732      -33.3654      -33.2237      -39.9293      
-44.1359      -42.7549      -37.518       -55.9355      -62.081       -72.8691      -90.594       
-104.852      -108.329      -108.009      -103.39       -92.8382      -95.1745      -64.5191      
-32.0667      -33.0033      -30.8927      -31.4135      -28.2603      -26.8028      -26.2067      
-27.3713      -30.2339      -27.1911      -33.2117      -38.2366      -41.6469      -33.6117      
-35.903       -45.5777      -61.9001      -73.9552      -83.8342      -106.02       -106.226      
-95.1034      -88.9493      -45.111       -1.37347       19.4754      

530 YR1 0 A 2040.0 0 32 2 657 
D5 0.532495 0.13604 0.129485 133.586 -90 R3 133.586 
-18.5324      -18.5834      -12.269       -28.8704      -21.9039      -6.15221       0.314854     
-7.09125      -14.3999      -21.5375      -15.7494      -7.16104      -10.4342      -16.1097      
-38.1991      -33.8072      -27.6488      -35.1267      -34.7417      -45.6107      -46.2962      
-46.3026      -46.6917      -48.417       -53.0786      -53.2247      -42.2235      -32.197       
-29.9731      -33.4474      -50.2092      -55.3634      -53.8126      -78.9683      -86.1788      
-114.061      -112.105      -110.21       -111.647      -107.54       -88.9901      -63.8294      
-31.3849      -24.9245       0.0833168     0.694799      2.7706       -0.587646     -6.13073      
-15.5936      -23.2624      -33.7672      -41.9008      -39.3672      -40.8116      -34.6003      
-33.5579      -33.3425      -45.3122      -64.7543      -90.0659      -104.884      -97.7701      
-93.9054      -81.8956      -41.7347       3.46876       26.2419      

540 YR1 0 A 2040.0 0 32 2 669 
D5 0.53284 0.1339 0.13115 134.406 -90 R3 134.406 
-28.8425      -33.9153      -37.913       -36.082       -38.3393      -34.4805      -26.8354      
-27.1224      -36.9878      -47.9493      -42.6587      -25.8748      -31.0282      -43.7241      
-41.9921      -33.2157      -26.816       -30.7558      -40.9301      -52.8608      -61.249       
-60.1323      -57.5742      -56.3344      -50.5968      -48.3211      -45.5712      -48.2469      
-59.0137      -66.3349      -65.3896      -81.0891      -76.3792      -84.4979      -97.2613      
-113.073      -122.097      -113.963      -113.487      -97.8442      -89.4426      -64.9143      
-34.4459      -29.9112      -9.24134      -8.33774      -8.01592      -11.1615      -12.8376      
-18.6994      -25.8359      -35.3272      -45.038       -34.6182      -36.6091      -27.5331      
-48.6796      -54.0918      -61.92        -80.8664      -99.1317      -92.4932      -91.1458      
-80.6396      -68.6396      -27.6328       17.2043       30.86        

550 YR1 0 A 2040.0 0 32 2 681 
D5 0.532815 0.133075 0.132145 134.799 -90 R3 134.799 
-50.3871      -43.7781      -46.593       -40.1099      -40.0527      -55.8388      -57.2266      
-47.3519      -29.2502      -47.3616      -64.1544      -53.5887      -43.1188      -47.6275      
-49.7136      -39.5291      -35.4754      -42.9169      -59.887       -65.4188      -61.5654      
-56.2254      -50.611       -46.0247      -39.0077      -40.6246      -53.0023      -71.2046      
-80.0875      -80.4653      -71.007       -89.8438      -75.0929      -93.9621      -93.3442      
-102.068      -106.79       -109.055      -108.265      -100.323      -86.9474      -61.2767      
-34.6089      -29.4932      -26.4352      -25.7426      -27.0356      -29.2222      -32.0708      
-38.3154      -42.3966      -45.1672      -31.8819      -39.0944      -42.4129      -29.6189      
-34.5846      -35.3731      -52.8061      -67.099       -76.3537      -84.0401      -86.1639      
-73.6458      -56.8823      -19.6802       22.8699       42.5687      

560 YR1 0 A 2040.0 0 32 2 693 
D5 0.53275 0.13238 0.13314 135.164 -90 R3 135.164 
-44.4088      -24.2177      -25.5734      -27.8325      -29.2311      -20.9788      -23.392       
-24.6678      -42.3125      -54.8202      -53.7046      -46.5593      -41.1238      -44.7529      
-33.4852      -26.3326      -36.2106      -60.9676      -61.8014      -48.2469      -42.2932      
-40.0429      -41.4984      -42.9059      -42.9409      -43.8609      -40.8882      -41.3839      
-54.7877      -55.7747      -46.3969      -62.6703      -80.5988      -86.4766      -95.8451      
-99.6344      -103.222      -110.448      -99.4145      -94.6518      -83.5949      -60.8533      
-35.6274      -25.1101      -24.0873      -25.7647      -24.9266      -28.434       -31.9931      
-35.0407      -30.7999      -16.6167      -16.2007      -17.4908      -18.6947      -23.6198      
-37.5208      -53.8179      -59.9428      -64.4951      -76.6778      -89.1446      -92.2003      
-70.7457      -69.0041      -21.8358       18.7164       31.0689      

570 YR1 0 A 2040.0 0 32 2 705 
D5 0.53322 0.133625 0.12975 134.157 -90 R3 134.157 
-46.872       -43.5718      -45.7875      -54.7548      -49.9768      -47.396       -31.3218      
-23.5143      -42.2441      -56.2694      -51.463       -45.3045      -45.4117      -46.1835      
-44.3886      -44.0721      -48.3427      -59.4582      -62.3146      -64.0738      -64.9864      
-65.1327      -64.628       -63.6676      -63.1275      -59.6629      -57.1891      -58.5177      
-61.3193      -77.9548      -83.1458      -83.3096      -109.66       -104.157      -101.35       
-106.702      -118.039      -109.209      -105.846      -101.961      -85.5745      -60.6874      
-30.7073      -20.3592      -30.0103      -30.051       -31.0009      -30.2353      -32.3805      
-35.6197      -40.3978      -36.2219      -22.4414      -17.2048      -38.8093      -41.2673      
-24.8174      -39.0066      -57.2043      -53.13        -70.1693      -83.9885      -80.7531      
-71.8764      -51.0914      -10.868        31.9602       42.3431      

580 YR3 0 A 2040.0 0 32 2 723 
D5 0.533485 0.13042 0.131065 135.141 -90 R3 135.142 
-51.5801      -34.0813      -32.263       -36.8139      -52.8922      -68.0672      -49.2338      
-43.4567      -38.2115      -26.6183      -38.6373      -58.4787      -56.2196      -45.0889      
-47.0019      -53.618       -63.1207      -73.246       -66.6449      -54.8159      -53.0973      
-49.4436      -48.3074      -47.7452      -48.4472      -52.003       -55.0917      -55.7788      
-56.7537      -53.0617      -71.6537      -93.3999      -95.6665      -108.612      -98.3746      
-108.249      -105.217      -109.094      -95.6732      -84.1322      -79.8051      -57.6451      
-34.3103      -29.2842      -23.4786      -21.6358      -23.7964      -22.8438      -21.9769      
-18.8635      -13.6218      -9.30568      -8.85898      -27.0186      -14.1433      -26.0369      
-34.598       -49.4422      -61.0233      -60.9622      -80.0934      -75.4939      -70.9338      
-68.6616      -45.9616      -11.5355       26.7144       44.4267      

590 YR1 0 A 2040.0 0 32 2 729 
D5 0.5341 0.12524 0.13387 136.908 -90 R3 136.908 
-68.183       -53.8827      -52.8269      -54.4265      -56.8358      -57.1902      -59.0413      
-60.696       -45.9785      -52.8928      -64.3302      -50.9322      -57.7444      -59.712       
-47.2317      -43.9619      -42.69        -46.7682      -44.0189      -46.391       -62.8163      
-70.8257      -69.8644      -71.0981      -72.8656      -67.707       -59.2245      -53.3875      
-66.1072      -73.6242      -76.0026      -82.2874      -96.4928      -97.4534      -103.217      
-98.6542      -103.125      -108.617      -102.544      -98.5045      -87.2034      -57.8735      
-30.5441      -15.9236      -19.4088      -20.3856      -17.8667      -18.1974      -14.6228      
-10.6538      -11.1597      -19.2954      -28.5173      -43.4049      -43.0254      -32.6064      
-31.6164      -29.9264      -41.378       -56.4116      -65.5016      -71.7102      -70.4175      
-56.6964      -41.3868      -0.122497      37.307        51.1994      

600 YR1 0 A 2040.0 0 32 2 741 
D5 0.534783 0.121103 0.135027 138.111 -90 R3 138.11 
-68.3196      -72.7882      -73.6572      -87.0559      -70.3609      -51.9113      -56.16        
-57.2262      -67.1071      -72.1845      -77.2921      -65.2635      -52.0038      -58.8919      
-48.6124      -48.1734      -70.3063      -76.378       -60.3033      -70.7052      -83.8789      
-88.7275      -91.4952      -92.8244      -92.8462      -94.8642      -94.3322      -91.7057      
-88.214       -92.2799      -86.198       -112.388      -114.44       -118.138      -112.57       
-119.552      -121.648      -104.557      -103.483      -99.256       -85.415       -58.7164      
-30.1223      -25.8878      -40.6957      -38.0617      -36.602       -36.5664      -39.6395      
-48.3501      -54.3819      -50.457       -37.5804      -27.1382      -28.3051      -8.21492      
-28.4798      -15.2668      -38.4483      -59.7099      -64.1282      -57.6556      -52.499       
-52.7822      -27.8525       1.48698       40.1115       57.6038      

610 YR1 0 A 2040.0 0 32 2 753 
D5 0.535328 0.11687 0.136478 139.425 -90 R3 139.423 
-70.0718      -67.1951      -67.7183      -70.7924      -68.9439      -59.2661      -48.7732      
-49.6297      -54.8939      -55.3821      -61.6122      -69.1775      -78.9101      -73.9307      
-66.6241      -74.7035      -74.6647      -77.9086      -75.4883      -75.6411      -84.2264      
-83.7313      -82.5367      -78.342       -79.1432      -80.3049      -76.6028      -72           
-75.5364      -83.2267      -77.0495      -77.1949      -88.4964      -108.403      -104.37       
-110.978      -112.033      -114.129      -108.709      -97.0272      -79.3741      -54.3544      
-30.3335      -19.6786      -27.3383      -21.1939      -19.4588      -20.2692      -24.258       
-28.5956      -34.4065      -39.8574      -41.0348      -42.2328      -40.9129      -44.4577      
-42.254       -33.2245      -41.5866      -62.0293      -60.6567      -58.3719      -58.6626      
-48.653       -29.8181       3.54881       44.2365       65.7099      

620 YR1 0 A 2040.0 0 32 2 771 
D5 0.535655 0.11423 0.1375 140.281 -90 R3 140.281 
-62.1675      -66.8229      -69.2635      -54.2355      -46.5516      -41.4383      -44.1402      
-48.0683      -58.9641      -67.9423      -63.6981      -58.7403      -44.998       -40.6909      
-47.9477      -62.3123      -64.3425      -55.2486      -57.5529      -72.1295      -82.8485      
-88.9572      -87.9162      -86.9109      -86.1938      -88.4476      -83.2682      -69.3842      
-72.0972      -79.9644      -81.7245      -80.9752      -80.5152      -95.438       -108.22       
-108.476      -102.139      -105.541      -96.9511      -81.5943      -80.9136      -58.0516      
-34.159       -26.6804      -24.4588      -14.7397      -12.3243      -10.4578      -9.30842      
-6.28354      -14.8851      -24.7256      -22.3658      -16.5461      -31.3192      -20.6486      
-35.0384      -47.2866      -38.2964      -49.8299      -55.0309      -65.3361      -63.9467      
-54.3755      -38.7862       5.39426       44.1319       53.8669      

630 YR3 0 A 2040.0 0 32 2 789 
D5 0.53612 0.11073 0.13848 141.354 -90 R3 141.354 
-57.6449      -53.4841      -50.0985      -47.7392      -47.2951      -55.3521      -61.8383      
-57.3722      -53.5344      -53.9287      -55.6963      -60.149       -68.2327      -70.91        
-73.7463      -75.5363      -76.7524      -76.404       -77.2883      -76.0869      -73.2035      
-72.5382      -71.2868      -69.514       -72.9163      -82.1794      -86.7501      -73.688       
-57.9151      -59.4507      -70.6691      -67.7018      -78.5616      -95.4452      -109.88       
-113.111      -108.686      -113.231      -107.643      -88.2362      -82.1453      -60.9353      
-32.4539      -18.9043      -4.59325      -2.38339       0.419445     -5.78979      -13.1961      
-23.5546      -32.3539      -26.6427      -18.668       -27.4423      -48.2144      -20.2734      
-37.3597      -15.7441      -34.311       -44.8985      -54.6617      -62.6768      -58.1227      
-52.1268      -35.7737       2.31624       46.8484       56.2608      

640 YR1 0 A 2040.0 0 32 2 795 
D5 0.536613 0.105503 0.14085 143.165 -90 R3 143.165 
-64.1601      -58.3417      -55.6686      -57.1464      -56.6607      -57.4935      -60.8365      
-66.0946      -74.2603      -71.4603      -68.0748      -63.0864      -55.353       -64.8754      
-69.3287      -60.6091      -60.7254      -68.0777      -76.8481      -81.642       -76.2682      
-75.3299      -74.4073      -73.3407      -72.92        -74.8759      -78.8066      -77.5423      
-81.9192      -85.993       -79.0217      -90.4372      -88.1564      -92.0888      -96.1978      
-101.416      -98.8048      -103.297      -102.936      -95.5841      -86.3771      -59.8815      
-32.4879      -24.8666      -37.1795      -39.51        -38.9426      -39.3308      -35.5459      
-30.8624      -24.6518      -17.9624      -13.165       -12.3517      -41.8749      -24.8031      
-42.7627      -39.1022      -45.7591      -46.5974      -54.9391      -64.9384      -64.0507      
-41.3177      -36.999        4.6503        45.0215       57.2992      

650 YR1 0 A 2040.0 0 32 2 813 
D5 0.536983 0.10512 0.139643 143.029 -90 R3 143.028 
-66.6044      -71.6151      -79.3525      -79.2936      -71.8106      -72.653       -72.1227      
-72.5928      -72.8552      -68.3469      -75.1378      -77.1213      -79.251       -81.5588      
-80.3576      -78.0416      -76.6958      -79.5882      -81.3038      -74.9669      -65.9823      
-61.8097      -60.1902      -55.5283      -53.9137      -52.3754      -53.9514      -59.2909      
-81.2782      -75.331       -81.9835      -91.5913      -91.6765      -91.6452      -98.2502      
-99.5313      -96.9644      -101.716      -104.151      -97.0976      -86.0567      -59.0252      
-34.4207      -28.0983       3.92645       11.9367       14.5619       12.0661       5.44282      
 0.904284     -10.0834      -19.8174      -27.5847      -14.728       -1.33453      -16.0714      
-29.59        -27.8548      -17.2983      -31.7937      -53.3233      -61.4809      -60.7117      
-42.2865      -22.6629       8.6897        49.0337       57.1069      

660 YR1 0 A 2040.0 0 32 2 825 
D5 0.537385 0.10113 0.141 144.35 -90 R3 144.35 
-46.9829      -41.2222      -51.8505      -59.7366      -58.1466      -50.1746      -48.0791      
-51.2691      -54.2136      -52.9509      -60.8171      -66.7826      -69.9105      -75.8959      
-76.68        -78.079       -75.9302      -82.3142      -82.8079      -66.8199      -69.1443      
-74.2775      -70.9785      -74.553       -75.0862      -75.9653      -77.9719      -80.2396      
-75.0033      -77.6751      -80.7422      -81.0695      -98.833       -101.818      -94.3937      
-99.5697      -104.23       -105.964      -101.749      -83.6383      -78.0126      -51.8348      
-31.5333      -12.7044      -6.00568      -1.60094      -2.70668      -1.22225      -6.25023      
-12.6669      -23.0821      -25.5471      -21.4052      -21.2662      -16.4089      -12.6626      
-17.6276      -32.2149      -35.8028      -44.4301      -45.6516      -49.0061      -44.8773      
-39.9362      -25.4256       10.8724       50.4434       60.6285      

665 YR2 0 A 2040.0 0 32 2 838 
D5 0.537527 0.0987267 0.14248 145.281 -90 R3 145.28 
-49.7864      -60.974       -63.5589      -81.5238      -79.3077      -51.6216      -52.7755      
-62.3043      -49.4672      -44.994       -48.5407      -56.554       -65.6642      -71.5541      
-75.8419      -69.7636      -74.7464      -79.4457      -76.9135      -71.4996      -70.7799      
-71.081       -71.8112      -72.526       -71.7594      -68.2307      -60.7743      -46.305       
-41.4287      -43.7831      -80.4208      -89.5611      -83.5783      -85.4358      -94.371       
-78.7941      -82.2874      -97.1193      -91.0955      -101.101      -72.4963      -52.7644      
-26.3392      -25.0325      -22.6977      -18.9671      -17.7383      -18.1112      -21.6685      
-27.0328      -24.4783      -13.2231      -19.3679      -6.22178      -11.2972      -29.2812      
-22.8373      -24.3844      -34.5721      -42.7433      -55.5328      -46.1278      -61.0548      
-48.5877      -36.3003       8.71836       47.9132       50.4881      

